t,FP1-F7,F7-T7,T7-P7,P7-O1
2990.0,16.2,-4.1,15.0,8.0
2990.00390625,13.9,-6.1,13.5,10.4
2990.0078125,11.9,-8.8,12.3,13.1
2990.01171875,6.1,-10.7,12.7,15.4
2990.015625,5.7,-17.0,14.7,15.0
2990.01953125,1.8,-21.7,17.4,12.7
2990.0234375,-4.9,-20.9,15.8,11.5
2990.02734375,-13.1,-23.2,14.3,15.4
2990.03125,-18.2,-30.3,15.4,21.7
2990.03515625,-24.8,-36.9,16.6,27.2
2990.0390625,-40.4,-40.8,17.4,35.8
2990.04296875,-47.9,-42.4,20.5,33.0
2990.046875,-44.3,-43.2,19.7,26.8
2990.05078125,-39.3,-45.1,15.0,28.7
2990.0546875,-33.0,-44.7,14.7,24.4
2990.05859375,-25.6,-45.1,13.5,20.1
2990.0625,-21.7,-45.1,8.8,22.5
2990.06640625,-17.0,-44.3,7.2,21.7
2990.0703125,-7.2,-46.3,5.3,19.3
2990.07421875,-3.3,-44.3,1.8,22.9
2990.078125,-1.8,-40.4,2.1,25.6
2990.08203125,2.1,-39.7,6.4,22.1
2990.0859375,4.1,-36.1,9.2,18.6
2990.08984375,-0.6,-31.1,11.9,19.7
2990.09375,-7.2,-28.3,12.7,19.7
2990.09765625,-12.7,-30.3,14.7,23.2
2990.1015625,-21.7,-35.0,17.4,33.4
2990.10546875,-31.1,-35.0,20.1,33.8
2990.109375,-35.0,-36.5,25.6,26.0
2990.11328125,-36.5,-40.0,22.9,26.4
2990.1171875,-41.2,-41.2,21.7,20.9
2990.12109375,-44.0,-41.2,20.5,13.5
2990.125,-46.3,-41.6,18.6,11.9
2990.12890625,-51.0,-37.7,16.2,8.4
2990.1328125,-51.4,-35.4,14.3,2.1
2990.13671875,-51.0,-35.8,12.3,-0.2
2990.140625,-57.2,-33.4,8.8,-1.4
2990.14453125,-60.4,-29.5,7.2,-5.7
2990.1484375,-53.3,-29.5,3.7,-8.0
2990.15234375,-47.5,-29.1,-2.1,-6.8
2990.15625,-45.5,-25.6,-6.4,-5.3
2990.16015625,-43.2,-21.7,-11.1,-4.1
2990.1640625,-38.5,-27.2,-15.0,6.1
2990.16796875,-36.5,-26.8,-13.5,6.1
2990.171875,-29.5,-21.3,-12.7,-1.0
2990.17578125,-20.1,-22.5,-14.7,-0.6
2990.1796875,-15.8,-22.9,-13.9,-2.1
2990.18359375,-11.5,-20.5,-12.7,-4.1
2990.1875,-8.4,-22.5,-10.7,0.2
2990.19140625,-11.9,-21.7,-8.0,5.3
2990.1953125,-17.4,-18.9,-6.1,11.1
2990.19921875,-20.1,-19.3,-4.9,16.2
2990.203125,-24.4,-20.1,-3.3,20.5
2990.20703125,-29.1,-14.7,-1.0,19.7
2990.2109375,-28.7,-8.0,-0.2,14.7
2990.21484375,-22.1,-6.8,-0.6,13.1
2990.21875,-15.0,-8.4,-1.0,13.5
2990.22265625,-12.3,-5.3,-2.1,10.7
2990.2265625,-10.4,-7.2,-3.3,12.3
2990.23046875,-0.2,-9.6,-1.0,8.0
2990.234375,7.6,-4.1,0.6,-1.4
2990.23828125,18.2,1.8,-0.2,-6.8
2990.2421875,24.8,5.7,1.0,-10.0
2990.24609375,27.2,8.4,3.3,-6.8
2990.25,27.2,9.6,5.7,-2.9
2990.25390625,25.2,8.4,9.6,0.2
2990.2578125,24.0,5.7,13.5,2.5
2990.26171875,21.7,5.7,13.1,3.7
2990.265625,21.3,2.9,15.4,4.5
2990.26953125,24.4,0.2,18.6,3.3
2990.2734375,20.5,4.9,20.1,1.0
2990.27734375,14.3,7.6,20.1,0.6
2990.28125,8.4,2.9,19.3,1.0
2990.28515625,-0.6,-1.0,16.6,0.2
2990.2890625,-19.7,-4.9,13.9,1.4
2990.29296875,-29.5,-8.0,15.8,-5.3
2990.296875,-33.8,-7.2,18.6,-14.3
2990.30078125,-36.5,-5.3,19.3,-16.6
2990.3046875,-33.4,-2.1,20.9,-20.5
2990.30859375,-27.2,-0.2,19.7,-21.7
2990.3125,-22.9,1.4,15.0,-17.8
2990.31640625,-11.9,4.5,14.7,-18.6
2990.3203125,1.0,6.1,15.0,-18.2
2990.32421875,10.0,9.2,17.4,-15.4
2990.328125,18.2,15.0,20.5,-13.1
2990.33203125,32.2,17.4,26.0,-15.8
2990.3359375,43.2,22.5,27.5,-17.0
2990.33984375,43.6,26.4,29.9,-14.7
2990.34375,43.2,26.4,33.0,-12.3
2990.34765625,38.9,19.7,34.2,-5.3
2990.3515625,28.3,11.9,36.1,2.5
2990.35546875,18.2,12.3,39.3,0.2
2990.359375,14.3,16.6,39.3,-10.0
2990.36328125,10.7,16.2,35.4,-9.6
2990.3671875,7.2,15.8,35.0,-13.9
2990.37109375,3.3,13.5,32.2,-17.0
2990.375,-1.8,11.9,27.9,-15.4
2990.37890625,-5.3,11.1,23.6,-15.8
2990.3828125,-3.3,11.9,19.3,-20.1
2990.38671875,2.9,11.5,12.3,-21.7
2990.390625,3.7,13.1,7.2,-23.6
2990.39453125,4.1,14.3,2.1,-29.9
2990.3984375,10.4,11.5,-1.8,-36.5
2990.40234375,13.1,9.2,-4.5,-38.9
2990.40625,9.2,9.6,-3.7,-42.0
2990.41015625,9.6,12.7,-1.4,-44.7
2990.4140625,10.0,9.6,3.3,-37.3
2990.41796875,8.4,11.9,8.4,-36.1
2990.421875,14.3,15.8,11.5,-42.8
2990.42578125,20.1,12.7,11.1,-38.9
2990.4296875,19.3,10.7,9.6,-34.6
2990.43359375,19.3,9.2,10.0,-34.2
2990.4375,17.0,6.4,10.4,-28.7
2990.44140625,8.8,4.1,7.6,-26.0
2990.4453125,3.3,3.7,4.9,-27.5
2990.44921875,0.2,0.2,2.5,-27.2
2990.453125,-2.5,-4.5,-0.6,-25.2
2990.45703125,-9.6,-2.9,-0.6,-27.5
2990.4609375,-11.9,-0.6,0.2,-28.3
2990.46484375,-8.0,-4.1,1.0,-25.6
2990.46875,-5.7,-8.8,2.5,-22.5
2990.47265625,-5.7,-8.0,6.4,-18.9
2990.4765625,-8.0,-9.6,10.7,-10.0
2990.48046875,-3.7,-11.1,13.1,-10.4
2990.484375,-0.2,-7.2,16.2,-17.0
2990.48828125,9.2,-2.9,17.0,-21.3
2990.4921875,16.6,-1.8,17.8,-22.9
2990.49609375,19.7,0.2,19.3,-21.7
2990.5,21.3,0.2,22.1,-19.3
2990.50390625,21.3,-2.9,23.2,-18.2
2990.5078125,18.9,-6.4,22.9,-20.5
2990.51171875,13.1,-8.0,20.1,-22.1
2990.515625,9.6,-11.5,17.0,-22.5
2990.51953125,6.8,-14.3,15.4,-26.0
2990.5234375,-2.1,-8.8,10.4,-28.7
2990.52734375,-10.7,-5.3,6.8,-29.5
2990.53125,-10.7,-5.3,6.8,-29.1
2990.53515625,-15.4,-3.3,6.1,-28.3
2990.5390625,-25.6,1.0,6.4,-24.8
2990.54296875,-27.9,4.5,10.0,-29.5
2990.546875,-27.5,8.4,6.8,-32.6
2990.55078125,-26.4,8.4,4.9,-30.7
2990.5546875,-23.2,6.8,5.7,-28.7
2990.55859375,-20.1,4.9,6.8,-24.4
2990.5625,-17.8,5.7,8.4,-16.6
2990.56640625,-13.1,7.2,12.3,-11.9
2990.5703125,-4.1,8.8,15.4,-9.6
2990.57421875,-1.0,12.7,13.9,-3.7
2990.578125,-1.0,15.4,14.3,-0.2
2990.58203125,2.1,13.5,16.6,-0.6
2990.5859375,3.7,12.7,17.8,2.1
2990.58984375,-1.0,14.3,20.5,5.3
2990.59375,-4.9,14.3,23.6,7.2
2990.59765625,-6.4,11.5,25.2,11.5
2990.6015625,-13.1,10.0,24.0,18.2
2990.60546875,-17.0,13.9,24.4,16.2
2990.609375,-13.5,18.2,25.2,9.2
2990.61328125,-9.6,18.9,18.6,11.5
2990.6171875,-8.4,19.7,16.2,9.6
2990.62109375,-6.1,16.6,15.8,7.2
2990.625,-9.2,13.1,12.3,11.1
2990.62890625,-14.3,9.2,9.2,15.0
2990.6328125,-15.8,2.9,6.8,13.1
2990.63671875,-15.4,-6.8,0.2,12.7
2990.640625,-20.1,-10.0,-3.3,11.9
2990.64453125,-19.7,-10.7,-2.1,5.7
2990.6484375,-10.4,-12.7,1.4,1.0
2990.65234375,-5.7,-13.9,3.7,4.5
2990.65625,-8.0,-11.9,4.9,8.8
2990.66015625,-14.3,-12.7,5.7,10.7
2990.6640625,-20.9,-19.3,5.7,20.9
2990.66796875,-27.2,-16.2,7.6,19.7
2990.671875,-26.0,-8.8,11.1,7.2
2990.67578125,-19.3,-7.2,9.2,5.3
2990.6796875,-18.9,-4.1,8.4,4.5
2990.68359375,-18.6,-2.1,9.6,2.5
2990.6875,-17.8,-3.7,10.0,3.3
2990.69140625,-19.3,-1.4,10.0,1.0
2990.6953125,-17.0,1.4,6.8,-3.3
2990.69921875,-10.0,1.0,2.1,-8.8
2990.703125,-4.9,-3.3,-1.0,-10.4
2990.70703125,-4.9,-5.3,-3.7,-10.7
2990.7109375,-2.1,-7.2,-3.3,-13.9
2990.71484375,4.5,-14.3,-4.1,-13.1
2990.71875,8.4,-20.1,-4.9,-12.7
2990.72265625,5.3,-21.7,-5.7,-12.3
2990.7265625,-1.8,-24.4,-6.8,-6.1
2990.73046875,-0.2,-29.5,-6.4,-5.7
2990.734375,-4.5,-27.2,-4.5,-8.4
2990.73828125,3.3,-23.6,-4.1,-11.9
2990.7421875,8.0,-21.3,-3.7,-13.1
2990.74609375,7.2,-16.6,-4.5,-10.0
2990.75,5.3,-13.9,-2.9,-5.7
2990.75390625,2.9,-13.1,-2.1,-1.0
2990.7578125,-1.8,-10.0,0.6,0.6
2990.76171875,-6.8,-8.0,3.3,1.4
2990.765625,-4.1,-9.2,5.7,0.6
2990.76953125,-1.4,-10.4,4.9,-0.6
2990.7734375,-2.1,-8.4,1.8,-2.1
2990.77734375,-1.0,-6.1,-2.9,-1.4
2990.78125,3.3,-8.8,-5.7,2.5
2990.78515625,6.1,-10.4,-7.2,6.8
2990.7890625,1.0,-10.4,-7.6,13.9
2990.79296875,3.7,-11.1,-5.3,13.5
2990.796875,6.1,-10.7,-3.3,11.9
2990.80078125,6.4,-10.4,-2.9,14.3
2990.8046875,6.1,-9.6,0.6,13.1
2990.80859375,2.9,-8.8,5.7,15.0
2990.8125,-2.1,-7.2,7.6,20.1
2990.81640625,-3.7,-6.4,12.7,18.9
2990.8203125,-0.2,-6.4,16.2,17.0
2990.82421875,-2.1,-4.1,17.8,18.6
2990.828125,-6.1,-3.7,18.9,18.6
2990.83203125,-3.7,-7.2,19.7,15.4
2990.8359375,-5.7,-9.2,19.7,15.0
2990.83984375,-11.9,-8.8,17.4,17.0
2990.84375,-15.0,-9.2,16.6,17.4
2990.84765625,-16.6,-13.1,16.2,19.7
2990.8515625,-20.1,-20.1,15.0,26.8
2990.85546875,-22.5,-17.0,14.7,18.9
2990.859375,-17.0,-13.9,11.9,10.0
2990.86328125,-11.5,-14.3,4.9,14.7
2990.8671875,-8.4,-12.7,1.4,13.9
2990.87109375,-6.1,-12.3,1.4,15.0
2990.875,-8.0,-11.1,4.1,19.3
2990.87890625,-12.7,-8.0,9.6,19.3
2990.8828125,-10.4,-1.4,16.6,14.7
2990.88671875,-5.3,4.9,20.1,13.9
2990.890625,-3.3,11.5,22.5,14.3
2990.89453125,0.2,18.6,22.9,11.5
2990.8984375,10.0,17.8,24.4,9.6
2990.90234375,16.6,13.1,24.0,12.3
2990.90625,15.0,11.5,23.6,15.8
2990.91015625,11.5,11.1,24.4,17.0
2990.9140625,5.3,3.7,23.2,25.2
2990.91796875,-2.5,2.5,23.6,21.3
2990.921875,-7.6,4.1,27.2,6.1
2990.92578125,-8.8,-0.6,24.8,0.6
2990.9296875,-12.3,-2.5,24.8,-2.9
2990.93359375,-14.3,-2.9,25.2,-6.4
2990.9375,-14.7,-6.8,27.2,-6.8
2990.94140625,-17.0,-6.4,29.1,-9.2
2990.9453125,-18.9,-4.1,31.5,-14.7
2990.94921875,-14.7,-2.9,34.2,-19.3
2990.953125,-12.3,-0.2,36.9,-22.1
2990.95703125,-11.1,7.6,39.7,-26.4
2990.9609375,-6.4,18.9,41.2,-33.0
2990.96484375,2.1,20.9,42.0,-33.4
2990.96875,6.4,24.0,40.0,-30.7
2990.97265625,6.4,27.9,35.4,-28.3
2990.9765625,2.5,27.2,26.8,-18.2
2990.98046875,6.1,21.3,18.2,-14.7
2990.984375,11.1,18.6,10.7,-21.7
2990.98828125,18.6,11.1,-1.0,-20.5
2990.9921875,24.8,2.1,-9.6,-20.1
2990.99609375,26.0,-4.5,-19.3,-15.0
2991.0,23.6,-10.7,-27.2,-5.7
2991.00390625,19.7,-15.4,-30.7,-0.2
2991.0078125,11.5,-15.4,-31.8,1.4
2991.01171875,0.6,-14.7,-30.7,3.3
2991.015625,-4.5,-17.8,-26.4,1.0
2991.01953125,-9.2,-18.9,-20.9,-3.7
2991.0234375,-15.4,-14.3,-15.4,-9.2
2991.02734375,-24.0,-10.4,-10.7,-14.7
2991.03125,-27.9,-8.8,-5.3,-19.7
2991.03515625,-35.8,-5.3,-0.6,-24.4
2991.0390625,-50.6,0.6,1.8,-24.4
2991.04296875,-51.8,3.7,6.4,-30.7
2991.046875,-49.4,9.2,8.4,-36.1
2991.05078125,-44.0,13.1,4.5,-34.2
2991.0546875,-35.0,14.7,4.1,-37.7
2991.05859375,-26.4,18.2,2.5,-39.7
2991.0625,-21.3,22.5,0.2,-38.1
2991.06640625,-13.5,24.0,1.8,-38.9
2991.0703125,-4.1,26.8,2.1,-38.1
2991.07421875,0.2,29.9,1.0,-31.5
2991.078125,3.3,31.8,-0.6,-24.8
2991.08203125,11.5,29.1,-1.0,-22.5
2991.0859375,18.9,25.2,-3.3,-22.5
2991.08984375,17.4,22.9,-6.8,-19.3
2991.09375,14.7,17.8,-8.0,-14.3
2991.09765625,13.5,10.4,-7.6,-6.1
2991.1015625,6.4,1.0,-10.0,6.8
2991.10546875,-1.4,0.2,-8.4,6.4
2991.109375,-5.7,-1.4,-5.3,0.2
2991.11328125,-9.2,-5.7,-8.4,4.1
2991.1171875,-16.2,-8.0,-5.7,2.9
2991.12109375,-21.3,-10.4,-2.1,4.1
2991.125,-25.6,-13.1,0.2,6.4
2991.12890625,-31.1,-11.1,2.5,4.9
2991.1328125,-29.9,-11.1,6.1,1.4
2991.13671875,-26.8,-11.5,5.3,-0.2
2991.140625,-27.5,-8.4,3.3,1.8
2991.14453125,-26.0,-2.5,4.1,0.2
2991.1484375,-15.8,-0.6,6.1,-2.5
2991.15234375,-7.6,1.0,6.1,-2.1
2991.15625,-5.7,4.5,4.9,-0.6
2991.16015625,-1.4,4.5,2.9,0.2
2991.1640625,2.1,-2.9,-3.7,6.8
2991.16796875,3.3,-3.7,-7.2,6.1
2991.171875,10.7,-0.6,-5.7,-5.3
2991.17578125,20.1,-1.8,-7.2,-10.0
2991.1796875,22.1,-2.1,-10.0,-10.0
2991.18359375,24.0,-4.1,-9.2,-13.5
2991.1875,23.2,-12.7,-11.1,-10.7
2991.19140625,16.6,-20.1,-12.3,-6.8
2991.1953125,10.7,-24.0,-10.7,-7.6
2991.19921875,7.6,-30.3,-7.2,-6.1
2991.203125,4.9,-36.1,-6.8,-4.1
2991.20703125,-1.8,-36.1,-6.1,-3.7
2991.2109375,-8.8,-33.8,-7.6,-4.9
2991.21484375,-11.1,-39.3,-11.1,0.2
2991.21875,-17.0,-41.2,-15.4,6.4
2991.22265625,-27.5,-38.1,-17.0,9.6
2991.2265625,-37.3,-39.3,-17.8,19.3
2991.23046875,-37.7,-38.1,-17.4,21.3
2991.234375,-35.4,-33.4,-16.6,18.2
2991.23828125,-27.5,-31.8,-18.9,22.9
2991.2421875,-18.2,-31.1,-19.7,26.8
2991.24609375,-11.1,-29.5,-22.1,36.5
2991.25,-3.7,-28.7,-20.1,43.6
2991.25390625,5.7,-27.9,-16.2,45.9
2991.2578125,11.9,-24.0,-14.3,47.1
2991.26171875,17.0,-19.3,-15.8,46.3
2991.265625,25.6,-20.1,-18.9,48.6
2991.26953125,30.7,-21.7,-21.7,49.0
2991.2734375,29.9,-19.7,-27.2,49.0
2991.27734375,26.8,-20.9,-29.5,48.6
2991.28125,25.2,-29.1,-30.7,50.2
2991.28515625,20.5,-33.8,-33.4,50.6
2991.2890625,7.2,-35.0,-39.7,54.1
2991.29296875,2.1,-35.4,-43.6,50.2
2991.296875,-1.8,-32.2,-45.9,42.4
2991.30078125,-4.5,-29.9,-48.3,40.0
2991.3046875,-2.9,-25.2,-45.5,34.6
2991.30859375,-0.2,-20.1,-43.2,31.8
2991.3125,0.2,-12.7,-45.5,31.8
2991.31640625,5.7,-6.8,-47.5,29.1
2991.3203125,15.4,-0.6,-48.6,26.8
2991.32421875,21.3,6.1,-47.1,27.2
2991.328125,29.9,13.5,-41.2,28.3
2991.33203125,44.0,21.7,-37.7,25.6
2991.3359375,57.2,27.5,-37.3,22.9
2991.33984375,62.3,32.6,-40.8,20.9
2991.34375,66.6,36.1,-44.7,16.6
2991.34765625,71.7,32.2,-44.3,12.3
2991.3515625,72.1,26.0,-39.7,10.0
2991.35546875,68.6,27.2,-35.8,0.2
2991.359375,70.9,28.3,-35.0,-12.7
2991.36328125,68.6,21.7,-40.4,-13.9
2991.3671875,64.3,15.8,-42.0,-22.5
2991.37109375,60.8,10.0,-42.0,-29.9
2991.375,52.2,3.3,-39.7,-34.2
2991.37890625,41.6,1.4,-35.8,-38.5
2991.3828125,35.0,1.8,-36.9,-39.7
2991.38671875,27.9,0.2,-38.9,-36.5
2991.390625,15.4,0.2,-40.4,-31.8
2991.39453125,6.8,6.8,-42.4,-27.9
2991.3984375,7.6,7.6,-40.8,-23.2
2991.40234375,8.4,9.6,-37.7,-15.4
2991.40625,7.2,15.4,-34.2,-6.1
2991.41015625,11.1,21.3,-29.1,-2.5
2991.4140625,13.5,21.3,-24.4,7.6
2991.41796875,16.2,28.3,-21.7,6.8
2991.421875,26.8,37.7,-22.5,-0.6
2991.42578125,38.5,38.5,-26.4,1.8
2991.4296875,46.3,41.2,-30.3,4.9
2991.43359375,53.7,42.4,-31.5,6.4
2991.4375,57.6,37.3,-29.5,8.4
2991.44140625,53.7,35.4,-27.2,10.4
2991.4453125,49.0,35.8,-25.2,7.6
2991.44921875,47.9,31.8,-22.1,5.3
2991.453125,44.3,29.5,-20.1,5.3
2991.45703125,35.8,31.5,-19.3,2.1
2991.4609375,29.9,29.5,-18.2,-2.9
2991.46484375,24.4,23.2,-20.1,-2.9
2991.46875,16.6,18.2,-19.7,-3.3
2991.47265625,5.3,17.8,-18.9,-8.4
2991.4765625,-8.0,17.4,-21.3,-4.5
2991.48046875,-11.9,17.4,-21.3,-8.0
2991.484375,-13.1,22.9,-19.7,-17.4
2991.48828125,-7.2,26.4,-20.5,-22.1
2991.4921875,0.2,31.1,-16.6,-27.9
2991.49609375,6.1,35.8,-11.5,-31.5
2991.5,13.9,39.3,-7.2,-32.2
2991.50390625,22.9,40.8,-2.9,-33.0
2991.5078125,28.7,45.5,0.2,-33.8
2991.51171875,33.0,47.9,1.4,-31.1
2991.515625,39.3,44.3,3.7,-27.9
2991.51953125,44.0,37.7,6.8,-26.0
2991.5234375,42.0,34.6,6.4,-21.7
2991.52734375,39.3,27.9,6.4,-17.8
2991.53125,40.0,18.6,5.7,-11.9
2991.53515625,37.7,11.5,4.5,-9.2
2991.5390625,25.2,5.7,4.1,-3.7
2991.54296875,17.8,-0.6,3.3,-3.7
2991.546875,7.6,-4.9,0.6,-6.4
2991.55078125,-0.6,-12.3,-6.1,-1.4
2991.5546875,-9.6,-17.0,-8.8,-0.2
2991.55859375,-19.3,-18.9,-11.9,2.1
2991.5625,-30.3,-19.7,-11.1,6.8
2991.56640625,-40.8,-17.0,-6.4,9.2
2991.5703125,-47.9,-14.3,-1.8,11.5
2991.57421875,-54.9,-10.4,1.4,14.7
2991.578125,-56.5,-5.7,6.4,15.0
2991.58203125,-48.6,-0.6,14.3,13.1
2991.5859375,-36.1,4.1,20.9,10.0
2991.58984375,-29.1,11.9,27.9,13.1
2991.59375,-21.7,17.0,33.8,16.2
2991.59765625,-12.3,16.6,35.8,23.2
2991.6015625,-3.7,12.3,35.8,33.8
2991.60546875,4.1,15.8,37.3,28.7
2991.609375,19.3,20.5,36.1,18.9
2991.61328125,33.0,20.5,29.1,22.1
2991.6171875,36.9,22.1,26.8,18.6
2991.62109375,40.8,18.9,23.2,18.9
2991.625,37.3,13.1,17.8,23.6
2991.62890625,28.7,10.7,14.7,22.9
2991.6328125,26.8,6.1,11.5,19.3
2991.63671875,23.2,0.2,7.2,20.1
2991.640625,10.0,-0.2,3.7,22.1
2991.64453125,-2.1,-1.8,1.0,23.2
2991.6484375,-9.6,-7.2,-0.2,24.4
2991.65234375,-20.5,-10.0,-2.1,27.9
2991.65625,-34.2,-10.7,-3.3,31.1
2991.66015625,-42.8,-13.5,-1.0,32.2
2991.6640625,-51.4,-17.4,0.6,42.4
2991.66796875,-55.7,-15.0,4.9,43.2
2991.671875,-51.0,-6.8,13.1,33.8
2991.67578125,-38.5,-0.6,15.8,33.8
2991.6796875,-27.5,4.1,19.7,34.2
2991.68359375,-14.3,4.9,22.5,34.2
2991.6875,-4.9,1.4,21.3,35.8
2991.69140625,2.1,-1.8,20.1,36.1
2991.6953125,12.3,-2.9,20.9,30.7
2991.69921875,26.8,-3.7,21.7,25.2
2991.703125,40.4,-5.7,20.1,23.2
2991.70703125,44.7,-4.1,20.9,20.1
2991.7109375,45.5,-4.1,17.4,16.6
2991.71484375,46.7,-8.4,11.9,17.8
2991.71875,42.0,-13.5,10.4,17.4
2991.72265625,31.8,-12.3,6.8,11.9
2991.7265625,19.7,-15.0,2.5,13.5
2991.73046875,9.6,-17.0,1.4,8.0
2991.734375,0.6,-17.4,-1.8,0.6
2991.73828125,-7.6,-20.5,-2.5,0.6
2991.7421875,-16.6,-19.7,0.2,1.0
2991.74609375,-28.7,-15.0,3.7,2.5
2991.75,-38.9,-8.8,11.5,6.4
2991.75390625,-44.7,-0.6,18.2,12.7
2991.7578125,-49.0,7.6,24.8,17.0
2991.76171875,-49.0,15.8,31.1,24.8
2991.765625,-40.0,17.8,41.2,30.7
2991.76953125,-29.1,22.1,51.0,32.2
2991.7734375,-22.9,30.3,58.4,30.7
2991.77734375,-14.3,32.6,62.7,29.1
2991.78125,-3.7,27.9,63.9,29.9
2991.78515625,2.5,24.8,62.7,29.1
2991.7890625,2.5,20.5,62.7,31.8
2991.79296875,8.8,14.7,61.5,33.8
2991.796875,10.7,12.3,58.0,30.7
2991.80078125,15.0,4.5,48.3,33.0
2991.8046875,16.6,-5.7,40.0,31.8
2991.80859375,15.0,-15.4,33.0,27.9
2991.8125,9.6,-22.1,27.2,26.0
2991.81640625,2.5,-28.3,27.2,23.6
2991.8203125,-5.3,-31.1,29.5,22.9
2991.82421875,-22.1,-28.3,32.2,25.2
2991.828125,-37.3,-24.0,35.8,27.9
2991.83203125,-45.5,-18.9,42.4,25.6
2991.8359375,-50.2,-10.0,47.5,21.3
2991.83984375,-56.5,1.4,51.8,20.1
2991.84375,-58.0,12.7,57.6,17.0
2991.84765625,-55.7,19.3,61.9,17.8
2991.8515625,-51.8,23.2,65.8,22.1
2991.85546875,-44.7,33.0,69.0,15.0
2991.859375,-27.5,40.4,68.6,6.8
2991.86328125,-11.5,40.4,61.9,11.5
2991.8671875,4.1,40.0,52.9,11.1
2991.87109375,20.1,32.2,40.4,14.7
2991.875,28.3,19.7,27.5,20.9
2991.87890625,32.2,8.0,17.8,24.0
2991.8828125,37.3,-3.3,15.4,24.4
2991.88671875,39.7,-15.0,16.6,28.3
2991.890625,32.6,-18.9,18.6,31.8
2991.89453125,28.3,-21.3,19.7,32.2
2991.8984375,27.2,-28.3,17.8,30.7
2991.90234375,18.2,-37.3,14.7,29.1
2991.90625,3.3,-43.2,11.5,27.5
2991.91015625,-10.4,-49.0,11.1,22.1
2991.9140625,-29.1,-59.6,9.6,27.5
2991.91796875,-45.5,-60.4,7.6,24.8
2991.921875,-54.5,-57.6,7.6,13.5
2991.92578125,-61.1,-59.2,1.4,10.7
2991.9296875,-69.4,-58.4,-4.1,10.0
2991.93359375,-72.5,-58.8,-8.8,5.7
2991.9375,-72.5,-62.3,-12.7,5.3
2991.94140625,-74.0,-62.7,-16.6,6.8
2991.9453125,-68.6,-59.6,-19.3,2.1
2991.94921875,-53.3,-58.4,-19.7,-0.6
2991.953125,-40.8,-56.5,-21.3,-1.4
2991.95703125,-31.1,-51.0,-22.9,-6.4
2991.9609375,-18.2,-48.6,-24.0,-8.0
2991.96484375,-6.4,-51.0,-24.8,-3.7
2991.96875,0.2,-49.8,-23.2,0.2
2991.97265625,4.5,-45.9,-18.2,2.9
2991.9765625,2.5,-40.4,-10.4,8.4
2991.98046875,3.7,-34.2,-3.3,6.8
2991.984375,6.1,-27.9,0.2,3.3
2991.98828125,6.4,-25.6,1.8,6.8
2991.9921875,1.0,-21.3,5.3,8.8
2991.99609375,-9.2,-17.0,8.0,12.7
2992.0,-21.3,-11.1,10.7,16.6
2992.00390625,-29.1,-3.3,14.7,15.4
2992.0078125,-35.8,7.2,14.3,15.0
2992.01171875,-38.1,17.0,10.4,15.0
2992.015625,-31.1,20.1,9.2,15.8
2992.01953125,-21.7,22.5,6.1,13.9
2992.0234375,-16.2,27.5,1.4,13.5
2992.02734375,-7.6,31.5,-1.4,13.9
2992.03125,2.1,31.8,-2.9,14.3
2992.03515625,8.8,33.4,-4.5,13.5
2992.0390625,10.0,33.4,-4.9,13.1
2992.04296875,15.8,26.4,-2.9,8.4
2992.046875,20.5,22.5,-4.5,3.3
2992.05078125,25.2,14.7,-9.6,7.6
2992.0546875,27.9,8.8,-11.1,9.6
2992.05859375,26.0,6.8,-13.9,10.7
2992.0625,19.3,4.9,-17.8,13.1
2992.06640625,11.9,0.2,-19.7,12.7
2992.0703125,2.5,-4.1,-22.9,10.7
2992.07421875,-11.9,-6.4,-27.5,13.5
2992.078125,-28.7,-6.8,-27.2,15.4
2992.08203125,-38.1,-7.2,-22.9,12.7
2992.0859375,-46.7,-6.1,-18.6,7.2
2992.08984375,-56.8,-2.1,-13.5,4.1
2992.09375,-60.8,1.8,-10.7,0.6
2992.09765625,-57.6,3.7,-8.8,-0.2
2992.1015625,-54.5,5.7,-6.4,6.1
2992.10546875,-48.6,11.5,-1.8,2.9
2992.109375,-33.0,17.8,0.6,-4.1
2992.11328125,-17.8,18.2,0.2,1.0
2992.1171875,-4.5,20.5,1.0,-1.4
2992.12109375,11.1,19.7,2.9,-3.3
2992.125,20.5,17.8,4.1,-3.3
2992.12890625,24.0,18.6,7.2,-7.2
2992.1328125,30.7,18.2,8.8,-15.4
2992.13671875,34.2,17.0,7.6,-18.9
2992.140625,31.1,20.9,3.3,-19.3
2992.14453125,29.5,26.8,1.0,-23.2
2992.1484375,32.6,25.2,-1.8,-25.2
2992.15234375,30.3,22.1,-6.4,-24.4
2992.15625,18.9,20.9,-8.8,-25.6
2992.16015625,6.1,18.2,-9.6,-29.9
2992.1640625,-10.0,10.7,-10.4,-26.4
2992.16796875,-26.0,12.7,-8.8,-30.3
2992.171875,-33.8,18.6,-6.4,-43.2
2992.17578125,-32.2,18.9,-10.0,-43.6
2992.1796875,-29.9,22.9,-14.7,-41.2
2992.18359375,-21.7,27.5,-17.0,-39.3
2992.1875,-8.8,31.8,-16.6,-34.2
2992.19140625,1.4,38.9,-13.1,-31.1
2992.1953125,13.1,46.7,-4.5,-33.4
2992.19921875,30.3,46.3,4.9,-34.6
2992.203125,43.6,40.8,13.1,-30.7
2992.20703125,49.4,37.7,19.3,-29.5
2992.2109375,56.8,36.1,22.1,-27.9
2992.21484375,65.4,29.5,22.1,-22.5
2992.21875,68.2,26.0,20.5,-18.9
2992.22265625,64.7,28.3,19.3,-17.8
2992.2265625,56.8,25.6,15.8,-11.1
2992.23046875,51.8,22.5,12.3,-12.3
2992.234375,47.5,20.1,7.2,-17.4
2992.23828125,43.2,13.9,-0.2,-18.6
2992.2421875,33.8,8.4,-4.1,-21.7
2992.24609375,19.3,3.7,-8.8,-24.0
2992.25,2.1,-0.6,-12.7,-26.0
2992.25390625,-13.1,-4.9,-16.6,-27.2
2992.2578125,-29.9,-4.5,-23.2,-29.9
2992.26171875,-42.8,-4.5,-29.9,-29.5
2992.265625,-45.9,-5.3,-32.2,-31.1
2992.26953125,-44.3,-2.1,-31.8,-35.8
2992.2734375,-39.7,4.5,-30.7,-36.9
2992.27734375,-27.9,11.9,-28.3,-33.4
2992.28125,-11.1,15.0,-23.2,-24.0
2992.28515625,2.9,19.7,-17.0,-15.8
2992.2890625,11.9,22.5,-7.6,-7.2
2992.29296875,24.0,25.6,2.1,-7.6
2992.296875,35.8,28.7,11.5,-8.8
2992.30078125,46.7,27.5,16.2,-2.1
2992.3046875,56.1,24.0,22.5,4.5
2992.30859375,60.0,18.9,26.4,14.3
2992.3125,58.4,12.7,26.8,23.2
2992.31640625,57.2,5.7,25.6,26.4
2992.3203125,54.1,0.2,20.5,27.2
2992.32421875,42.4,-3.7,13.9,29.9
2992.328125,27.9,-7.2,7.6,32.6
2992.33203125,15.4,-13.1,4.5,34.6
2992.3359375,1.4,-16.6,3.3,35.4
2992.33984375,-17.0,-17.8,6.1,35.8
2992.34375,-36.1,-17.4,10.4,35.4
2992.34765625,-47.9,-20.5,15.8,35.0
2992.3515625,-60.4,-25.2,21.3,41.2
2992.35546875,-66.2,-20.1,26.8,34.2
2992.359375,-58.8,-16.2,26.0,24.4
2992.36328125,-49.0,-13.1,23.2,25.6
2992.3671875,-38.5,-6.1,23.6,17.4
2992.37109375,-25.6,0.2,24.8,10.4
2992.375,-18.6,5.7,27.9,5.7
2992.37890625,-14.7,11.1,33.8,-1.8
2992.3828125,-6.1,14.3,39.3,-12.3
2992.38671875,1.8,10.4,41.2,-15.8
2992.390625,1.4,11.5,39.7,-15.8
2992.39453125,4.9,12.3,35.0,-19.3
2992.3984375,11.1,4.1,27.5,-20.1
2992.40234375,11.5,-3.3,18.2,-17.4
2992.40625,3.3,-9.2,8.4,-15.4
2992.41015625,-6.8,-16.2,5.3,-14.7
2992.4140625,-22.9,-27.5,0.2,-1.0
2992.41796875,-38.5,-31.1,-2.9,0.2
2992.421875,-48.6,-31.5,-1.8,-5.7
2992.42578125,-53.7,-35.4,-4.5,0.2
2992.4296875,-59.6,-31.8,-7.6,4.5
2992.43359375,-60.8,-26.8,-5.3,7.2
2992.4375,-58.4,-24.0,-2.5,12.7
2992.44140625,-57.6,-16.2,0.2,13.1
2992.4453125,-51.8,-9.6,5.3,7.6
2992.44921875,-39.3,-9.2,12.3,2.9
2992.453125,-28.7,-6.8,17.0,1.4
2992.45703125,-20.5,-1.4,18.9,-2.5
2992.4609375,-9.2,2.9,18.2,-10.4
2992.46484375,2.5,2.9,10.7,-13.5
2992.46875,13.9,1.0,0.2,-18.2
2992.47265625,19.7,-0.2,-8.4,-26.8
2992.4765625,18.6,-6.1,-18.9,-29.5
2992.48046875,19.7,-12.7,-26.0,-35.8
2992.484375,18.2,-17.8,-28.3,-50.6
2992.48828125,17.4,-24.0,-36.1,-58.0
2992.4921875,10.7,-32.6,-42.8,-61.5
2992.49609375,0.2,-39.3,-49.8,-61.5
2992.5,-11.1,-47.5,-54.1,-58.4
2992.50390625,-22.9,-54.1,-54.9,-54.1
2992.5078125,-35.4,-56.5,-54.1,-51.0
2992.51171875,-45.1,-56.5,-51.0,-47.1
2992.515625,-46.3,-58.0,-45.9,-42.8
2992.51953125,-44.3,-57.2,-41.2,-39.7
2992.5234375,-45.9,-49.0,-35.4,-35.8
2992.52734375,-43.6,-41.6,-31.1,-28.7
2992.53125,-38.5,-40.0,-26.8,-17.4
2992.53515625,-36.1,-35.4,-22.1,-9.2
2992.5390625,-38.5,-28.3,-17.4,-0.6
2992.54296875,-32.2,-24.0,-14.3,0.2
2992.546875,-29.9,-13.1,-11.1,-3.3
2992.55078125,-25.6,-8.4,-11.1,-0.6
2992.5546875,-20.1,-8.4,-10.0,-1.4
2992.55859375,-19.7,-8.0,-10.7,-4.1
2992.5625,-21.7,-11.5,-14.3,-5.3
2992.56640625,-20.5,-17.4,-20.9,-11.5
2992.5703125,-18.6,-21.3,-28.3,-18.2
2992.57421875,-22.5,-24.8,-36.5,-17.8
2992.578125,-25.6,-28.3,-44.3,-15.0
2992.58203125,-23.6,-33.8,-47.9,-16.2
2992.5859375,-22.9,-36.1,-48.6,-15.8
2992.58984375,-27.2,-38.5,-48.3,-12.7
2992.59375,-29.5,-40.0,-44.0,-10.7
2992.59765625,-32.2,-43.6,-37.7,-2.9
2992.6015625,-36.5,-51.4,-31.8,8.8
2992.60546875,-37.3,-48.6,-26.8,6.8
2992.609375,-31.1,-43.6,-23.6,-1.4
2992.61328125,-22.9,-41.2,-27.9,0.2
2992.6171875,-15.0,-35.8,-29.9,-3.7
2992.62109375,-6.4,-31.5,-31.5,-5.3
2992.625,-3.3,-26.8,-32.6,-4.1
2992.62890625,-2.5,-20.9,-30.7,-8.4
2992.6328125,2.5,-15.0,-27.2,-17.8
2992.63671875,8.8,-11.9,-26.4,-21.7
2992.640625,7.2,-7.2,-25.6,-24.0
2992.64453125,8.4,-3.3,-26.4,-27.2
2992.6484375,13.9,-5.7,-27.9,-27.5
2992.65234375,17.4,-11.1,-29.9,-24.8
2992.65625,15.8,-12.7,-31.5,-24.0
2992.66015625,12.7,-15.8,-30.3,-22.9
2992.6640625,9.2,-24.0,-29.5,-10.7
2992.66796875,2.5,-21.3,-27.2,-10.4
2992.671875,1.0,-19.7,-22.9,-17.0
2992.67578125,4.9,-22.5,-24.0,-17.0
2992.6796875,3.3,-21.7,-23.6,-18.6
2992.68359375,1.4,-23.6,-20.5,-20.5
2992.6875,-0.6,-28.7,-17.4,-16.2
2992.69140625,-6.8,-27.9,-16.6,-12.3
2992.6953125,-11.9,-26.4,-17.0,-13.5
2992.69921875,-8.8,-29.5,-19.7,-13.5
2992.703125,-8.0,-31.1,-23.6,-13.1
2992.70703125,-11.9,-24.8,-27.5,-17.0
2992.7109375,-11.5,-20.9,-31.1,-20.1
2992.71484375,-9.6,-23.2,-35.8,-17.4
2992.71875,-11.1,-24.8,-40.8,-16.6
2992.72265625,-11.5,-27.2,-44.0,-17.8
2992.7265625,-15.8,-31.5,-47.9,-12.3
2992.73046875,-14.3,-33.8,-51.0,-14.7
2992.734375,-8.0,-29.1,-51.8,-26.4
2992.73828125,1.0,-25.6,-55.7,-28.7
2992.7421875,7.6,-20.5,-58.0,-31.8
2992.74609375,9.2,-14.7,-56.5,-33.8
2992.75,11.1,-12.7,-52.9,-32.2
2992.75390625,10.7,-12.3,-45.9,-32.2
2992.7578125,5.7,-6.4,-37.3,-36.5
2992.76171875,4.9,-0.2,-33.0,-39.3
2992.765625,7.2,1.8,-29.5,-42.4
2992.76953125,10.7,5.3,-26.0,-47.1
2992.7734375,10.7,12.7,-23.6,-51.0
2992.77734375,11.1,17.0,-20.1,-49.8
2992.78125,11.1,17.4,-15.0,-44.0
2992.78515625,8.0,19.7,-11.1,-39.3
2992.7890625,1.0,19.3,-5.7,-31.1
2992.79296875,0.6,17.4,-1.0,-31.1
2992.796875,2.1,17.4,0.6,-33.8
2992.80078125,7.6,16.2,-0.2,-30.7
2992.8046875,14.7,16.6,-0.6,-29.9
2992.80859375,19.7,18.6,-2.9,-23.6
2992.8125,22.9,20.5,-3.7,-17.4
2992.81640625,28.3,20.1,-2.9,-15.0
2992.8203125,33.4,17.0,-2.9,-13.1
2992.82421875,30.7,17.0,-1.4,-11.5
2992.828125,28.3,17.4,-0.6,-10.7
2992.83203125,30.3,15.8,0.6,-10.0
2992.8359375,30.7,17.8,4.9,-12.3
2992.83984375,27.5,21.7,6.4,-12.7
2992.84375,22.9,22.9,8.0,-10.0
2992.84765625,17.8,20.1,9.6,-7.2
2992.8515625,11.9,13.9,10.7,-3.3
2992.85546875,8.0,14.7,12.3,-6.1
2992.859375,11.1,13.9,15.8,-14.7
2992.86328125,16.2,11.5,15.0,-16.2
2992.8671875,18.6,10.7,16.6,-17.8
2992.87109375,20.5,10.0,17.0,-17.0
2992.875,19.3,10.4,16.2,-15.0
2992.87890625,16.6,11.9,14.3,-13.1
2992.8828125,18.2,10.7,13.1,-11.5
2992.88671875,21.3,9.6,11.5,-8.8
2992.890625,18.6,9.2,10.7,-5.7
2992.89453125,16.2,9.6,13.1,-6.4
2992.8984375,22.1,7.6,13.9,-8.8
2992.90234375,24.4,5.3,13.5,-9.2
2992.90625,22.1,6.8,10.7,-8.4
2992.91015625,18.9,11.5,10.4,-9.6
2992.9140625,15.0,8.0,6.1,-1.0
2992.91796875,11.1,9.2,4.5,-2.9
2992.921875,12.7,10.7,6.1,-11.5
2992.92578125,20.1,6.8,0.2,-10.4
2992.9296875,22.1,4.9,-4.1,-10.4
2992.93359375,24.0,4.9,-4.5,-13.1
2992.9375,25.2,2.1,-4.1,-12.7
2992.94140625,20.5,2.9,-2.5,-14.7
2992.9453125,17.8,7.6,-0.6,-18.2
2992.94921875,21.7,6.8,-1.8,-17.8
2992.953125,22.1,6.8,-2.1,-16.6
2992.95703125,18.6,12.3,-2.1,-17.0
2992.9609375,16.6,17.0,0.2,-19.3
2992.96484375,15.4,17.0,3.3,-15.8
2992.96875,11.5,16.2,6.1,-10.4
2992.97265625,6.8,17.4,6.8,-7.6
2992.9765625,0.2,14.3,6.8,1.8
2992.98046875,-2.5,12.3,8.8,3.7
2992.984375,-1.4,15.4,12.3,-0.6
2992.98828125,1.8,15.8,13.9,1.4
2992.9921875,3.3,17.4,15.8,1.0
2992.99609375,2.5,17.8,13.9,2.1
2993.0,4.5,13.9,10.0,5.7
2993.00390625,6.1,11.1,4.1,8.4
2993.0078125,3.3,11.5,-0.2,9.2
2993.01171875,1.8,12.7,-4.9,11.9
2993.015625,3.3,7.6,-5.3,13.9
2993.01953125,1.8,5.3,-2.9,11.1
2993.0234375,-1.4,4.9,-1.0,7.2
2993.02734375,-3.3,4.5,-0.6,6.8
2993.03125,-3.7,2.9,1.4,9.2
2993.03515625,-7.2,5.3,1.0,13.1
2993.0390625,-13.1,7.2,0.2,19.7
2993.04296875,-15.0,10.0,3.7,16.6
2993.046875,-14.7,14.7,5.3,11.9
2993.05078125,-10.0,17.0,5.3,10.7
2993.0546875,-3.3,18.9,8.8,7.2
2993.05859375,-1.0,20.5,10.4,7.6
2993.0625,-1.0,20.9,9.6,12.3
2993.06640625,-1.0,19.3,10.7,13.1
2993.0703125,-1.0,17.0,12.7,10.4
2993.07421875,-6.8,19.7,11.9,13.5
2993.078125,-11.9,21.7,16.2,14.3
2993.08203125,-9.2,18.9,21.3,14.7
2993.0859375,-9.2,15.8,25.2,15.0
2993.08984375,-13.9,14.7,28.7,18.2
2993.09375,-16.2,14.7,31.1,18.2
2993.09765625,-19.3,11.5,33.0,21.7
2993.1015625,-24.0,12.3,38.5,27.2
2993.10546875,-24.8,18.6,45.9,22.9
2993.109375,-18.6,24.4,49.0,18.6
2993.11328125,-15.0,26.4,47.5,24.0
2993.1171875,-11.5,26.8,46.7,25.2
2993.12109375,-9.2,24.4,45.1,27.9
2993.125,-10.4,20.5,44.0,33.4
2993.12890625,-11.5,20.1,43.2,33.8
2993.1328125,-7.6,18.6,42.0,29.1
2993.13671875,-4.1,17.0,38.9,26.0
2993.140625,-8.4,18.9,36.5,23.2
2993.14453125,-12.3,20.9,35.0,15.0
2993.1484375,-9.6,18.6,33.8,10.0
2993.15234375,-8.4,14.7,31.1,11.9
2993.15625,-10.7,14.3,30.3,13.9
2993.16015625,-14.3,15.4,30.7,15.8
2993.1640625,-17.8,10.7,29.9,26.0
2993.16796875,-21.7,11.1,29.5,25.2
2993.171875,-18.6,15.4,28.7,13.5
2993.17578125,-11.5,13.5,22.9,11.1
2993.1796875,-7.6,13.5,17.4,9.6
2993.18359375,-3.7,15.0,15.0,4.5
2993.1875,-1.4,11.5,12.3,5.3
2993.19140625,-3.7,9.6,10.0,5.3
2993.1953125,-6.8,11.1,7.6,1.8
2993.19921875,-2.9,6.4,6.8,1.8
2993.203125,-2.9,4.1,6.1,2.9
2993.20703125,-4.1,6.8,8.0,0.6
2993.2109375,0.2,9.2,9.6,-3.3
2993.21484375,6.1,5.3,7.6,-1.8
2993.21875,10.7,4.5,6.4,-2.5
2993.22265625,13.9,5.7,4.5,-4.1
2993.2265625,11.9,6.1,2.1,1.4
2993.23046875,12.7,7.6,3.7,-0.2
2993.234375,17.8,11.1,4.1,-4.9
2993.23828125,21.7,9.2,1.8,-2.9
2993.2421875,20.9,7.6,1.8,-2.9
2993.24609375,17.8,4.9,-0.2,-1.8
2993.25,13.9,-0.2,-0.6,-0.6
2993.25390625,10.4,-2.5,-2.5,-1.0
2993.2578125,3.7,-1.4,-5.7,-3.7
2993.26171875,-0.6,0.2,-9.2,-4.9
2993.265625,0.6,-0.6,-8.4,-8.8
2993.26953125,0.2,-1.4,-6.1,-12.7
2993.2734375,-1.0,1.8,-3.7,-15.8
2993.27734375,-1.4,4.5,0.2,-17.8
2993.28125,-3.3,3.7,0.2,-13.9
2993.28515625,-4.9,4.1,0.2,-9.6
2993.2890625,-9.6,4.9,0.2,-3.3
2993.29296875,-9.2,4.9,2.9,-5.3
2993.296875,-4.5,5.7,3.3,-5.7
2993.30078125,1.4,8.0,4.1,-4.9
2993.3046875,8.0,8.8,8.4,-6.8
2993.30859375,11.1,11.1,8.8,-4.1
2993.3125,12.7,15.0,9.2,-0.2
2993.31640625,17.0,17.4,10.7,-1.4
2993.3203125,20.5,19.7,11.1,-2.1
2993.32421875,18.2,24.0,9.2,-2.9
2993.328125,15.8,26.4,8.0,-2.9
2993.33203125,17.8,21.7,8.0,-3.7
2993.3359375,19.7,18.2,5.3,-3.7
2993.33984375,19.3,16.2,2.9,0.2
2993.34375,19.3,16.2,3.3,3.3
2993.34765625,18.6,17.0,4.5,7.2
2993.3515625,16.6,18.9,5.7,14.3
2993.35546875,15.0,26.0,10.0,8.4
2993.359375,18.6,31.5,15.0,-1.4
2993.36328125,25.2,32.2,10.4,-2.1
2993.3671875,27.5,30.7,10.4,-4.5
2993.37109375,29.5,27.5,10.7,-1.8
2993.375,28.3,27.2,7.6,4.9
2993.37890625,26.4,29.5,6.8,8.4
2993.3828125,32.2,29.1,8.8,7.6
2993.38671875,37.3,27.5,6.4,6.8
2993.390625,33.8,27.2,4.1,5.7
2993.39453125,29.9,26.8,4.9,0.2
2993.3984375,30.3,23.6,4.1,-1.8
2993.40234375,27.9,20.5,2.5,1.4
2993.40625,20.5,20.9,2.5,3.3
2993.41015625,15.4,20.5,1.4,5.3
2993.4140625,7.6,13.9,0.2,15.4
2993.41796875,0.2,14.3,3.7,12.7
2993.421875,-0.2,15.8,10.4,4.1
2993.42578125,4.1,12.7,12.3,6.4
2993.4296875,4.5,12.3,13.1,7.6
2993.43359375,5.3,11.1,11.1,8.0
2993.4375,8.0,7.2,6.4,10.4
2993.44140625,4.5,6.1,4.5,9.2
2993.4453125,2.5,8.0,4.5,4.9
2993.44921875,6.8,4.5,6.4,4.1
2993.453125,8.0,1.8,9.6,6.4
2993.45703125,2.9,5.3,10.7,8.0
2993.4609375,2.9,6.1,9.6,4.9
2993.46484375,1.8,-0.6,6.8,8.8
2993.46875,-2.1,-5.3,1.8,8.8
2993.47265625,-6.1,-7.6,-2.1,4.5
2993.4765625,-13.5,-10.4,-6.4,8.8
2993.48046875,-14.7,-9.2,-10.7,10.4
2993.484375,-10.4,-4.5,-11.1,2.1
2993.48828125,-2.9,-6.1,-13.5,2.9
2993.4921875,0.6,-6.8,-15.0,0.2
2993.49609375,2.5,-6.8,-14.3,-1.8
2993.5,6.8,-7.6,-11.9,-2.5
2993.50390625,9.6,-6.8,-10.0,-0.2
2993.5078125,8.4,-2.9,-8.8,1.4
2993.51171875,7.2,-1.4,-10.0,2.5
2993.515625,9.2,-4.5,-11.5,2.9
2993.51953125,8.8,-7.6,-12.3,1.0
2993.5234375,6.4,-4.1,-13.1,-2.5
2993.52734375,3.7,-2.5,-10.7,-2.1
2993.53125,0.6,-4.1,-7.6,4.5
2993.53515625,-4.5,-4.1,-4.9,7.6
2993.5390625,-11.1,-7.6,-0.2,12.7
2993.54296875,-13.1,-8.8,2.9,10.7
2993.546875,-10.0,-7.2,-1.0,6.1
2993.55078125,-3.7,-8.4,-8.8,8.0
2993.5546875,0.2,-10.7,-13.9,8.4
2993.55859375,2.1,-14.3,-20.1,10.0
2993.5625,2.5,-15.8,-23.2,11.5
2993.56640625,6.1,-18.9,-19.3,8.4
2993.5703125,10.0,-18.6,-17.8,4.5
2993.57421875,9.2,-13.9,-13.9,3.3
2993.578125,9.2,-11.1,-11.1,0.6
2993.58203125,13.1,-12.3,-8.4,-4.5
2993.5859375,16.2,-11.5,-6.8,-8.8
2993.58984375,15.0,-10.4,-7.6,-11.1
2993.59375,13.1,-8.4,-8.8,-15.0
2993.59765625,8.4,-6.4,-9.2,-15.0
2993.6015625,2.5,-6.8,-8.8,-10.4
2993.60546875,-1.0,1.0,-5.3,-19.7
2993.609375,1.4,7.2,-1.8,-28.3
2993.61328125,5.7,9.2,-1.0,-23.2
2993.6171875,10.7,10.4,2.5,-24.4
2993.62109375,14.3,9.2,5.7,-19.7
2993.625,12.7,8.8,6.1,-13.5
2993.62890625,11.9,9.6,5.7,-12.7
2993.6328125,15.0,8.4,4.5,-13.1
2993.63671875,18.6,5.7,1.8,-10.7
2993.640625,15.8,5.3,-2.1,-8.0
2993.64453125,13.5,5.3,-3.3,-7.6
2993.6484375,15.8,0.6,-5.3,-7.2
2993.65234375,17.8,-3.3,-8.4,-6.1
2993.65625,13.9,-2.5,-10.4,-6.4
2993.66015625,11.5,-2.5,-11.5,-6.4
2993.6640625,6.8,-5.7,-16.6,2.9
2993.66796875,1.8,-3.7,-18.6,1.8
2993.671875,4.9,-1.4,-18.6,-6.1
2993.67578125,10.4,-2.9,-23.2,-6.1
2993.6796875,12.3,-1.8,-26.8,-11.1
2993.68359375,14.7,-2.1,-27.9,-14.3
2993.6875,17.0,-6.8,-29.9,-12.3
2993.69140625,11.5,-8.0,-31.8,-9.6
2993.6953125,8.0,-10.4,-31.5,-8.4
2993.69921875,7.2,-15.4,-28.7,-3.7
2993.703125,2.9,-19.7,-25.2,0.6
2993.70703125,-3.3,-18.2,-20.9,0.2
2993.7109375,-6.1,-15.8,-17.4,-2.9
2993.71484375,-5.7,-19.3,-17.8,-1.4
2993.71875,-8.0,-22.5,-20.9,-1.0
2993.72265625,-12.3,-22.9,-20.1,-3.3
2993.7265625,-22.5,-25.6,-19.7,2.9
2993.73046875,-26.0,-26.8,-17.4,2.1
2993.734375,-26.4,-22.9,-11.5,-7.2
2993.73828125,-23.2,-21.7,-11.5,-7.2
2993.7421875,-20.1,-21.7,-10.0,-9.6
2993.74609375,-22.5,-18.6,-8.0,-10.0
2993.75,-23.6,-18.9,-4.1,-6.8
2993.75390625,-24.4,-20.1,0.2,-5.3
2993.7578125,-30.7,-16.2,4.9,-6.1
2993.76171875,-36.1,-14.3,6.8,-3.3
2993.765625,-36.1,-17.4,7.6,-1.4
2993.76953125,-38.1,-19.7,7.2,-1.4
2993.7734375,-42.0,-16.2,5.7,-1.8
2993.77734375,-42.8,-11.5,2.9,-2.1
2993.78125,-41.2,-11.9,1.8,-1.4
2993.78515625,-41.2,-8.8,2.5,-2.5
2993.7890625,-44.3,-5.7,5.7,0.6
2993.79296875,-44.3,-4.1,9.6,-3.3
2993.796875,-40.4,-1.8,9.2,-9.2
2993.80078125,-35.4,0.2,5.7,-7.6
2993.8046875,-30.3,1.8,5.3,-9.6
2993.80859375,-25.6,2.1,4.9,-9.6
2993.8125,-26.8,6.8,7.6,-6.1
2993.81640625,-26.0,8.4,12.3,-5.3
2993.8203125,-24.8,9.2,15.4,-7.6
2993.82421875,-29.9,11.1,15.0,-7.6
2993.828125,-34.2,13.1,15.0,-6.8
2993.83203125,-29.5,8.8,14.3,-10.4
2993.8359375,-24.4,5.3,11.1,-10.4
2993.83984375,-24.4,2.5,8.4,-7.6
2993.84375,-24.8,-0.6,3.3,-6.4
2993.84765625,-25.6,-4.9,-0.2,-3.3
2993.8515625,-30.3,-10.4,-2.1,3.3
2993.85546875,-33.0,-5.7,0.2,-1.8
2993.859375,-26.8,-2.1,1.0,-6.8
2993.86328125,-20.5,-0.6,-2.1,-4.1
2993.8671875,-16.6,0.6,-4.1,-4.9
2993.87109375,-11.9,1.8,-6.4,-5.3
2993.875,-11.1,4.1,-8.8,-2.1
2993.87890625,-13.1,9.2,-8.4,0.2
2993.8828125,-7.6,10.7,-2.5,-1.8
2993.88671875,-2.9,10.4,0.6,0.2
2993.890625,-4.9,11.5,4.1,2.9
2993.89453125,-4.1,14.3,6.4,0.2
2993.8984375,1.4,11.1,7.6,-1.0
2993.90234375,2.9,8.8,5.7,2.5
2993.90625,1.0,7.6,5.3,4.9
2993.91015625,0.6,7.6,4.1,3.7
2993.9140625,-3.7,2.5,2.1,11.1
2993.91796875,-7.6,6.1,2.5,5.7
2993.921875,-4.1,9.6,4.5,-5.7
2993.92578125,-2.1,8.4,4.9,-5.7
2993.9296875,-2.1,8.4,5.7,-6.1
2993.93359375,-1.0,8.0,8.0,-7.2
2993.9375,-0.2,6.1,8.4,-4.1
2993.94140625,-0.6,4.1,7.2,-0.6
2993.9453125,-1.8,6.4,5.3,-1.8
2993.94921875,5.7,1.4,3.7,-1.4
2993.953125,10.7,-2.5,1.4,1.8
2993.95703125,9.6,-0.2,0.6,0.2
2993.9609375,13.5,2.5,0.6,-2.5
2993.96484375,16.2,0.6,-0.6,1.4
2993.96875,17.4,-1.4,-0.6,3.7
2993.97265625,13.5,-1.0,-1.0,3.7
2993.9765625,5.7,-5.3,-1.8,7.2
2993.98046875,2.9,-8.4,-5.7,8.4
2993.984375,0.2,-8.4,-7.2,2.1
2993.98828125,4.9,-10.4,-11.1,1.0
2993.9921875,8.0,-11.5,-13.5,2.9
2993.99609375,8.8,-10.4,-12.7,4.5
2994.0,10.0,-10.0,-9.6,6.1
2994.00390625,10.7,-8.8,-6.1,7.2
2994.0078125,7.2,-3.7,-3.7,8.4
2994.01171875,4.5,-0.6,-3.3,8.8
2994.015625,7.2,-1.4,-3.7,10.4
2994.01953125,9.2,-1.0,-4.1,9.6
2994.0234375,6.8,2.5,-4.9,7.2
2994.02734375,5.3,5.7,-2.1,4.5
2994.03125,3.3,4.9,-0.6,7.2
2994.03515625,-0.6,4.9,-0.2,9.6
2994.0390625,-5.3,2.1,-0.2,13.1
2994.04296875,-6.4,-1.8,0.2,10.0
2994.046875,-5.7,-2.9,-1.4,4.9
2994.05078125,-2.1,-8.0,-2.9,4.1
2994.0546875,-1.0,-11.5,-0.6,2.1
2994.05859375,-2.5,-12.3,0.2,4.9
2994.0625,-7.2,-11.1,2.1,10.0
2994.06640625,-6.1,-10.7,6.1,10.4
2994.0703125,-5.3,-7.6,8.4,9.2
2994.07421875,-9.2,-3.3,11.5,11.9
2994.078125,-11.5,1.0,15.0,13.9
2994.08203125,-6.8,0.2,20.5,15.4
2994.0859375,-3.3,0.2,25.2,19.7
2994.08984375,-2.9,1.8,30.3,22.9
2994.09375,-1.4,3.3,33.4,25.2
2994.09765625,0.2,1.0,35.0,29.1
2994.1015625,-2.9,-4.1,36.5,37.7
2994.10546875,-1.4,-2.5,38.5,33.0
2994.109375,5.3,-1.0,40.0,25.2
2994.11328125,9.2,-1.4,36.1,28.3
2994.1171875,12.3,1.4,32.2,26.0
2994.12109375,13.9,1.0,27.2,25.2
2994.125,10.0,1.0,20.9,27.5
2994.12890625,2.5,2.5,17.8,26.8
2994.1328125,2.9,1.4,18.9,22.5
2994.13671875,3.7,0.2,20.9,21.7
2994.140625,-2.5,2.5,22.5,24.4
2994.14453125,-2.9,5.3,24.4,20.1
2994.1484375,1.4,5.3,23.2,18.2
2994.15234375,3.7,3.3,20.9,19.7
2994.15625,2.9,3.7,19.3,19.7
2994.16015625,2.9,4.9,18.6,21.7
2994.1640625,-0.6,-0.2,17.4,33.0
2994.16796875,-3.3,1.8,21.3,31.5
2994.171875,0.6,3.3,25.6,24.0
2994.17578125,5.7,0.6,24.4,25.6
2994.1796875,5.3,0.2,26.8,22.5
2994.18359375,8.0,-1.0,26.8,20.1
2994.1875,8.8,-4.1,24.0,22.9
2994.19140625,2.9,-4.9,22.1,24.4
2994.1953125,1.4,-2.1,16.2,23.6
2994.19921875,6.4,-4.9,11.5,24.8
2994.203125,8.4,-6.1,10.0,24.8
2994.20703125,7.2,-0.6,9.6,19.7
2994.2109375,9.6,2.9,11.1,13.9
2994.21484375,8.0,0.6,12.3,13.5
2994.21875,8.0,-0.2,10.0,15.0
2994.22265625,4.5,-1.0,9.6,14.7
2994.2265625,-1.0,-2.1,8.8,20.5
2994.23046875,-0.2,-4.5,6.4,22.5
2994.234375,0.2,-2.5,8.0,14.7
2994.23828125,4.9,-6.1,6.1,12.3
2994.2421875,6.8,-8.4,6.1,10.4
2994.24609375,6.8,-8.4,4.9,7.6
2994.25,7.6,-11.1,4.1,7.2
2994.25390625,9.2,-13.1,1.0,4.9
2994.2578125,6.4,-11.1,-2.5,0.6
2994.26171875,4.9,-10.0,-8.0,-4.5
2994.265625,8.8,-11.1,-11.1,-8.4
2994.26953125,13.1,-9.6,-13.1,-12.7
2994.2734375,12.7,-4.1,-15.4,-15.8
2994.27734375,11.5,-3.7,-18.6,-13.9
2994.28125,6.1,-6.8,-23.6,-7.6
2994.28515625,-1.4,-10.0,-27.9,-6.1
2994.2890625,-13.1,-12.7,-31.1,-4.9
2994.29296875,-14.3,-13.1,-33.8,-8.4
2994.296875,-11.1,-9.2,-33.8,-19.3
2994.30078125,-3.3,-8.4,-35.4,-20.5
2994.3046875,3.3,-7.2,-33.4,-20.5
2994.30859375,6.1,-2.5,-29.9,-19.3
2994.3125,5.7,-0.2,-24.8,-17.0
2994.31640625,8.8,0.2,-19.7,-14.7
2994.3203125,13.1,0.2,-17.4,-17.0
2994.32421875,13.1,-0.6,-18.6,-16.2
2994.328125,13.1,-1.0,-20.1,-13.9
2994.33203125,15.4,-2.1,-20.1,-16.2
2994.3359375,17.8,-1.8,-19.3,-17.4
2994.33984375,17.0,0.2,-16.6,-17.0
2994.34375,15.0,0.2,-13.5,-17.0
2994.34765625,14.3,-2.5,-11.9,-16.2
2994.3515625,10.7,-11.1,-11.1,-8.8
2994.35546875,10.0,-9.2,-11.9,-13.9
2994.359375,15.8,-7.2,-12.7,-25.2
2994.36328125,21.3,-5.3,-17.8,-24.8
2994.3671875,24.8,-1.4,-17.4,-30.3
2994.37109375,26.0,-0.6,-16.2,-33.4
2994.375,20.1,-1.4,-15.8,-30.7
2994.37890625,13.1,-3.3,-16.2,-28.7
2994.3828125,15.0,-7.2,-17.4,-31.1
2994.38671875,18.6,-13.1,-22.1,-28.7
2994.390625,15.8,-12.3,-26.0,-24.4
2994.39453125,18.6,-8.0,-28.7,-26.0
2994.3984375,23.2,-6.8,-30.7,-25.2
2994.40234375,23.2,-6.8,-31.5,-19.3
2994.40625,19.3,-3.7,-31.1,-17.8
2994.41015625,16.2,-4.1,-29.1,-17.4
2994.4140625,11.1,-10.0,-31.8,-6.1
2994.41796875,9.2,-10.4,-27.2,-8.0
2994.421875,16.2,-8.8,-24.4,-15.4
2994.42578125,21.7,-10.4,-26.4,-11.5
2994.4296875,23.2,-6.8,-25.2,-12.3
2994.43359375,27.5,-4.9,-24.4,-15.0
2994.4375,29.1,-4.1,-24.0,-12.7
2994.44140625,27.5,-0.2,-21.3,-12.7
2994.4453125,29.1,4.1,-17.0,-16.2
2994.44921875,35.0,3.7,-13.5,-17.4
2994.453125,37.7,4.9,-12.3,-18.2
2994.45703125,35.4,9.6,-10.4,-22.9
2994.4609375,36.9,13.5,-10.0,-29.5
2994.46484375,39.3,11.9,-10.4,-28.7
2994.46875,40.4,11.9,-11.5,-25.6
2994.47265625,38.9,15.0,-9.2,-24.8
2994.4765625,32.6,16.6,-8.8,-15.0
2994.48046875,31.5,18.2,-8.4,-11.9
2994.484375,30.3,21.7,-3.7,-17.4
2994.48828125,33.0,18.6,-3.7,-16.2
2994.4921875,34.2,15.0,-3.7,-17.0
2994.49609375,32.6,12.3,-4.5,-14.3
2994.5,32.2,8.8,-2.5,-12.7
2994.50390625,34.2,5.7,-1.4,-10.4
2994.5078125,31.8,6.4,-1.0,-8.0
2994.51171875,26.0,8.8,0.6,-6.4
2994.515625,27.5,6.8,1.8,-3.7
2994.51953125,26.0,6.4,1.0,-2.1
2994.5234375,17.8,11.1,3.3,-2.1
2994.52734375,13.5,12.7,5.7,-1.4
2994.53125,8.8,10.4,6.8,4.5
2994.53515625,3.3,10.4,9.2,5.7
2994.5390625,-4.1,9.2,13.1,3.3
2994.54296875,-3.3,6.8,15.8,-4.1
2994.546875,-2.9,8.8,16.6,-17.8
2994.55078125,-3.7,6.8,15.4,-23.6
2994.5546875,-3.3,2.9,14.7,-27.5
2994.55859375,-7.6,0.6,11.1,-27.5
2994.5625,-15.4,-3.3,7.6,-24.0
2994.56640625,-16.6,-9.6,4.1,-27.5
2994.5703125,-17.8,-16.6,-0.2,-31.1
2994.57421875,-25.2,-20.5,-6.4,-31.5
2994.578125,-27.2,-24.8,-12.7,-31.5
2994.58203125,-26.0,-31.1,-15.8,-32.2
2994.5859375,-22.1,-34.6,-18.9,-32.6
2994.58984375,-21.7,-35.8,-20.5,-30.7
2994.59375,-23.2,-35.4,-20.9,-29.1
2994.59765625,-26.4,-36.5,-19.3,-22.9
2994.6015625,-31.8,-38.9,-15.0,-11.5
2994.60546875,-35.8,-30.3,-11.1,-14.7
2994.609375,-32.6,-24.0,-8.8,-24.0
2994.61328125,-27.2,-20.1,-14.7,-25.6
2994.6171875,-22.9,-18.6,-17.4,-32.2
2994.62109375,-18.9,-20.9,-19.7,-35.8
2994.625,-19.7,-24.8,-20.1,-33.4
2994.62890625,-23.6,-27.2,-17.4,-35.0
2994.6328125,-20.1,-31.5,-15.0,-39.3
2994.63671875,-17.4,-36.9,-13.9,-42.4
2994.640625,-20.9,-36.9,-16.6,-42.4
2994.64453125,-22.5,-35.0,-18.6,-46.7
2994.6484375,-18.2,-36.9,-20.1,-46.3
2994.65234375,-15.8,-38.5,-23.6,-40.8
2994.65625,-17.4,-37.7,-24.0,-37.3
2994.66015625,-18.6,-35.8,-22.9,-33.8
2994.6640625,-25.2,-35.8,-25.6,-20.9
2994.66796875,-31.8,-30.3,-22.9,-22.1
2994.671875,-32.2,-22.5,-19.3,-27.5
2994.67578125,-29.5,-21.3,-19.3,-24.4
2994.6796875,-27.5,-18.9,-17.0,-23.2
2994.68359375,-23.6,-18.6,-11.9,-22.9
2994.6875,-19.7,-20.5,-11.1,-18.6
2994.69140625,-22.9,-17.8,-11.5,-15.4
2994.6953125,-24.4,-12.7,-12.3,-15.8
2994.69921875,-18.6,-13.5,-11.5,-12.7
2994.703125,-14.7,-11.9,-10.0,-9.6
2994.70703125,-12.7,-6.4,-5.7,-11.1
2994.7109375,-6.4,-2.5,-3.3,-13.5
2994.71484375,-1.4,-2.9,-5.3,-10.7
2994.71875,-0.2,-3.7,-8.0,-11.1
2994.72265625,-0.6,-2.5,-10.7,-14.3
2994.7265625,-6.8,-3.3,-13.9,-11.9
2994.73046875,-8.8,-3.3,-15.0,-15.0
2994.734375,-7.2,0.2,-17.4,-22.1
2994.73828125,-2.9,-4.1,-21.3,-18.2
2994.7421875,-0.2,-8.4,-22.1,-15.8
2994.74609375,0.2,-11.5,-23.6,-13.9
2994.75,1.4,-17.4,-22.9,-11.5
2994.75390625,1.8,-19.7,-19.7,-10.4
2994.7578125,0.2,-15.0,-17.8,-9.6
2994.76171875,-0.2,-11.9,-17.4,-5.7
2994.765625,2.9,-13.5,-18.6,-1.0
2994.76953125,7.2,-13.5,-18.9,1.0
2994.7734375,7.6,-10.4,-20.1,0.2
2994.77734375,6.8,-8.8,-21.7,4.1
2994.78125,6.8,-9.2,-21.7,12.7
2994.78515625,2.1,-9.6,-22.1,17.0
2994.7890625,-5.7,-8.8,-22.9,23.2
2994.79296875,-7.2,-8.8,-20.5,23.2
2994.796875,-7.6,-7.2,-19.3,16.6
2994.80078125,-2.1,-6.8,-20.9,18.2
2994.8046875,1.4,-8.0,-19.7,19.3
2994.80859375,2.5,-6.4,-19.3,18.9
2994.8125,2.1,-4.5,-19.3,20.1
2994.81640625,5.3,-2.5,-18.9,18.2
2994.8203125,10.0,-1.4,-17.0,14.7
2994.82421875,8.8,2.1,-18.2,14.7
2994.828125,9.2,6.8,-19.7,15.4
2994.83203125,12.7,6.1,-18.9,14.3
2994.8359375,16.2,8.4,-20.9,13.1
2994.83984375,13.9,11.1,-22.9,15.0
2994.84375,10.0,13.5,-21.7,15.0
2994.84765625,5.7,11.1,-19.7,17.0
2994.8515625,-0.6,5.7,-17.8,24.4
2994.85546875,-3.3,6.4,-11.9,18.2
2994.859375,2.5,6.1,-10.4,13.1
2994.86328125,6.1,6.1,-12.3,21.3
2994.8671875,9.2,8.0,-11.9,22.1
2994.87109375,11.5,10.4,-11.1,25.2
2994.875,10.7,9.6,-8.8,29.5
2994.87890625,7.6,12.3,-7.2,28.7
2994.8828125,13.1,13.5,-4.9,25.2
2994.88671875,17.8,12.7,-5.7,25.6
2994.890625,15.0,16.6,-7.6,26.8
2994.89453125,13.5,20.5,-9.2,25.6
2994.8984375,15.8,18.2,-8.4,27.9
2994.90234375,16.6,13.9,-7.6,31.5
2994.90625,13.1,12.7,-4.1,34.2
2994.91015625,10.0,14.3,1.0,34.6
2994.9140625,4.9,12.7,6.1,41.2
2994.91796875,-0.2,17.4,10.0,41.2
2994.921875,-0.2,22.9,16.2,33.4
2994.92578125,6.1,23.6,15.4,32.6
2994.9296875,10.0,24.8,13.9,30.7
2994.93359375,15.8,26.4,13.9,27.5
2994.9375,22.9,26.0,13.1,27.2
2994.94140625,20.5,27.9,13.1,29.1
2994.9453125,18.2,30.7,11.9,31.5
2994.94921875,23.6,24.4,11.5,35.0
2994.953125,24.8,20.1,10.7,38.1
2994.95703125,23.2,21.3,9.6,36.9
2994.9609375,27.9,21.3,10.4,33.0
2994.96484375,31.1,20.1,11.5,35.0
2994.96875,31.5,19.3,13.9,38.9
2994.97265625,31.5,19.7,18.2,40.8
2994.9765625,27.9,18.9,20.5,48.3
2994.98046875,27.9,17.4,21.7,47.5
2994.984375,33.8,19.3,21.3,40.0
2994.98828125,42.0,16.6,18.2,36.5
2994.9921875,45.9,15.0,15.4,31.8
2994.99609375,48.6,16.6,13.9,27.2
2995.0,51.0,15.4,11.5,24.4
2995.00390625,52.9,13.1,11.5,20.5
2995.0078125,49.8,15.0,10.4,16.6
2995.01171875,46.7,14.3,9.2,13.5
2995.015625,47.5,7.6,8.4,12.7
2995.01953125,46.7,2.5,7.2,11.1
2995.0234375,41.2,2.9,4.9,7.6
2995.02734375,35.4,0.2,0.6,7.2
2995.03125,28.3,-5.7,-1.8,9.6
2995.03515625,20.1,-10.0,-3.3,10.0
2995.0390625,11.5,-14.7,-4.9,12.7
2995.04296875,10.0,-17.8,-2.1,10.0
2995.046875,11.5,-14.7,-0.6,5.7
2995.05078125,16.6,-11.9,-0.2,8.0
2995.0546875,21.3,-9.6,-1.4,11.9
2995.05859375,23.6,-4.5,-2.1,16.6
2995.0625,24.0,0.2,-2.9,21.7
2995.06640625,31.1,1.4,-2.5,24.4
2995.0703125,37.3,3.7,-0.2,22.9
2995.07421875,36.9,8.4,1.4,22.9
2995.078125,36.9,11.9,1.0,23.6
2995.08203125,40.4,12.3,2.5,21.7
2995.0859375,42.4,13.1,2.5,20.9
2995.08984375,40.4,14.3,1.8,22.9
2995.09375,39.3,16.6,2.9,22.1
2995.09765625,35.8,15.8,1.8,22.5
2995.1015625,30.7,12.7,0.2,24.8
2995.10546875,27.2,13.5,-0.6,13.9
2995.109375,31.1,13.9,-3.7,3.3
2995.11328125,33.8,11.1,-10.7,0.2
2995.1171875,36.5,10.0,-13.5,-7.6
2995.12109375,38.5,8.8,-15.4,-11.5
2995.125,35.0,7.6,-17.8,-12.3
2995.12890625,28.7,6.1,-19.3,-11.9
2995.1328125,30.3,1.0,-22.1,-10.7
2995.13671875,28.3,-4.1,-28.3,-6.8
2995.140625,18.6,-5.7,-34.2,-3.3
2995.14453125,10.7,-6.8,-37.3,-6.1
2995.1484375,7.6,-8.8,-40.4,-7.6
2995.15234375,3.3,-12.7,-42.4,-5.3
2995.15625,-2.1,-14.7,-43.2,-4.5
2995.16015625,-5.3,-18.2,-42.0,-4.5
2995.1640625,-15.4,-25.6,-40.4,4.9
2995.16796875,-22.5,-27.2,-35.8,2.5
2995.171875,-23.6,-27.9,-28.7,-5.7
2995.17578125,-22.5,-30.3,-28.3,-4.1
2995.1796875,-25.2,-30.3,-27.2,-3.7
2995.18359375,-24.4,-30.7,-25.2,-5.7
2995.1875,-26.0,-32.6,-25.6,-3.3
2995.19140625,-33.4,-33.4,-24.8,-1.8
2995.1953125,-41.6,-32.6,-25.6,-2.1
2995.19921875,-45.5,-39.7,-27.2,-1.8
2995.203125,-54.5,-46.7,-28.7,2.1
2995.20703125,-68.6,-47.9,-31.1,1.8
2995.2109375,-76.4,-48.6,-34.6,-1.0
2995.21484375,-83.8,-55.7,-38.5,-1.0
2995.21875,-92.4,-60.8,-40.4,-1.0
2995.22265625,-101.8,-60.8,-39.3,-5.3
2995.2265625,-113.1,-63.9,-36.9,-6.4
2995.23046875,-117.8,-65.1,-36.1,-7.2
2995.234375,-115.5,-60.4,-35.4,-17.4
2995.23828125,-104.9,-60.0,-37.7,-20.1
2995.2421875,-93.2,-59.6,-36.5,-20.9
2995.24609375,-82.2,-54.9,-36.5,-20.1
2995.25,-69.0,-52.6,-34.6,-18.2
2995.25390625,-54.1,-50.2,-32.6,-15.0
2995.2578125,-45.1,-43.6,-33.4,-10.0
2995.26171875,-35.0,-36.9,-34.2,-4.5
2995.265625,-19.3,-35.8,-31.1,0.2
2995.26953125,-5.7,-31.5,-27.9,1.4
2995.2734375,3.7,-22.1,-26.8,-0.2
2995.27734375,11.9,-15.0,-26.4,-0.2
2995.28125,15.4,-11.1,-28.3,3.7
2995.28515625,14.7,-9.2,-30.3,10.0
2995.2890625,10.0,-8.0,-29.1,16.6
2995.29296875,6.4,-4.5,-22.9,13.9
2995.296875,4.9,0.2,-19.3,10.7
2995.30078125,2.1,0.2,-17.8,10.0
2995.3046875,-4.5,-5.7,-16.2,7.6
2995.30859375,-18.6,-14.3,-17.4,8.4
2995.3125,-35.8,-26.0,-19.3,10.7
2995.31640625,-48.3,-37.3,-15.0,7.2
2995.3203125,-60.0,-43.2,-13.1,5.3
2995.32421875,-75.6,-41.6,-14.3,4.1
2995.328125,-86.9,-40.8,-13.9,2.5
2995.33203125,-94.7,-42.8,-14.7,-2.9
2995.3359375,-104.1,-44.0,-19.7,-8.8
2995.33984375,-112.7,-47.1,-26.0,-13.9
2995.34375,-122.5,-51.0,-31.1,-20.1
2995.34765625,-135.0,-56.1,-37.3,-20.5
2995.3515625,-146.7,-63.9,-42.8,-15.4
2995.35546875,-153.4,-63.9,-40.4,-24.8
2995.359375,-153.7,-61.5,-40.4,-35.0
2995.36328125,-149.1,-58.8,-46.7,-38.1
2995.3671875,-140.5,-54.5,-50.6,-43.2
2995.37109375,-131.5,-53.7,-55.3,-43.2
2995.375,-129.9,-50.6,-58.8,-37.7
2995.37890625,-128.0,-44.0,-56.8,-35.0
2995.3828125,-120.1,-40.0,-51.0,-34.6
2995.38671875,-113.9,-35.8,-44.0,-32.2
2995.390625,-114.7,-26.8,-38.5,-26.4
2995.39453125,-115.1,-17.4,-32.6,-25.6
2995.3984375,-113.5,-13.9,-30.3,-20.1
2995.40234375,-116.2,-8.4,-29.5,-12.7
2995.40625,-119.8,-1.0,-25.2,-8.8
2995.41015625,-119.0,2.9,-17.0,-7.2
2995.4140625,-118.6,4.1,-12.3,2.1
2995.41796875,-116.2,8.4,-4.9,0.2
2995.421875,-104.1,12.7,0.2,-5.3
2995.42578125,-88.9,13.1,-2.5,-0.6
2995.4296875,-76.4,18.6,-4.5,1.0
2995.43359375,-59.2,22.1,-2.1,1.4
2995.4375,-43.2,24.0,-0.2,2.9
2995.44140625,-35.0,31.1,3.7,4.5
2995.4453125,-25.6,38.1,8.8,3.3
2995.44921875,-11.1,40.4,16.2,3.3
2995.453125,-1.4,44.0,20.5,9.2
2995.45703125,3.7,52.9,26.0,10.7
2995.4609375,13.5,59.6,31.8,9.2
2995.46484375,21.3,58.0,32.2,15.4
2995.46875,24.0,55.3,34.2,20.5
2995.47265625,26.0,52.2,35.4,18.9
2995.4765625,20.5,45.9,35.0,23.2
2995.48046875,17.4,44.0,33.8,23.2
2995.484375,18.2,48.3,36.1,11.1
2995.48828125,20.5,49.4,31.1,11.5
2995.4921875,18.2,52.9,27.5,12.7
2995.49609375,15.4,58.4,23.6,15.8
2995.5,16.6,59.6,20.5,20.9
2995.50390625,19.3,60.8,19.3,27.2
2995.5078125,22.5,65.8,20.5,30.3
2995.51171875,28.3,69.7,23.2,32.2
2995.515625,38.1,69.7,26.8,37.7
2995.51953125,49.4,71.7,32.6,37.7
2995.5234375,58.4,76.0,38.1,37.7
2995.52734375,68.2,75.2,42.0,38.1
2995.53125,75.6,69.4,44.3,40.0
2995.53515625,79.9,61.9,43.6,37.3
2995.5390625,78.7,53.7,40.4,33.4
2995.54296875,79.1,48.3,40.4,21.3
2995.546875,83.0,49.4,36.9,7.6
2995.55078125,88.5,48.3,35.0,0.2
2995.5546875,92.4,49.0,36.5,-4.9
2995.55859375,94.0,52.9,35.4,-5.7
2995.5625,93.2,58.0,35.0,-5.3
2995.56640625,99.4,62.3,38.9,-6.1
2995.5703125,104.9,69.4,42.8,-6.8
2995.57421875,104.9,77.9,47.1,-3.3
2995.578125,106.9,83.8,50.6,1.4
2995.58203125,112.3,83.8,54.1,6.1
2995.5859375,119.0,80.7,56.5,12.7
2995.58984375,124.1,77.6,55.7,20.1
2995.59375,127.6,70.5,58.0,28.3
2995.59765625,125.6,62.3,58.4,40.0
2995.6015625,117.4,49.8,58.8,54.5
2995.60546875,110.0,40.0,62.7,53.7
2995.609375,104.9,26.4,63.5,50.6
2995.61328125,98.3,10.7,58.8,52.6
2995.6171875,87.7,-2.9,59.2,48.3
2995.62109375,74.4,-17.0,58.8,46.7
2995.625,53.3,-24.4,59.2,45.5
2995.62890625,32.6,-28.7,58.8,41.6
2995.6328125,20.1,-34.2,54.1,36.5
2995.63671875,6.4,-39.3,47.5,34.2
2995.640625,-13.1,-38.1,39.7,34.6
2995.64453125,-31.1,-37.7,32.6,27.9
2995.6484375,-44.7,-42.4,26.0,22.9
2995.65234375,-60.0,-46.7,18.6,20.5
2995.65625,-73.7,-50.2,11.9,15.8
2995.66015625,-83.8,-52.9,4.5,13.1
2995.6640625,-95.5,-57.6,-2.9,20.1
2995.66796875,-101.4,-57.6,-7.2,13.9
2995.671875,-95.5,-57.6,-11.9,2.5
2995.67578125,-88.1,-63.9,-18.6,2.1
2995.6796875,-79.1,-64.7,-25.6,-1.0
2995.68359375,-62.7,-68.6,-30.3,-4.5
2995.6875,-45.5,-72.9,-37.7,-2.5
2995.69140625,-34.2,-69.4,-46.7,-3.3
2995.6953125,-18.9,-65.1,-52.2,-9.2
2995.69921875,-1.8,-65.1,-57.6,-10.4
2995.703125,9.6,-63.9,-58.4,-9.2
2995.70703125,15.8,-58.4,-55.7,-11.9
2995.7109375,25.6,-54.1,-51.4,-14.3
2995.71484375,30.7,-52.6,-47.9,-10.0
2995.71875,29.5,-50.2,-45.5,-6.1
2995.72265625,22.1,-43.2,-40.0,-4.1
2995.7265625,8.8,-39.3,-32.6,3.3
2995.73046875,-1.8,-35.4,-24.4,5.7
2995.734375,-10.4,-26.8,-11.5,-1.0
2995.73828125,-13.9,-24.8,-5.3,1.4
2995.7421875,-23.2,-25.2,-3.3,4.1
2995.74609375,-37.3,-24.8,-5.3,7.2
2995.75,-46.3,-31.8,-5.7,12.7
2995.75390625,-54.1,-38.1,-6.4,13.9
2995.7578125,-64.7,-41.6,-4.5,11.9
2995.76171875,-70.5,-46.7,-2.5,10.7
2995.765625,-69.7,-57.2,-0.2,12.3
2995.76953125,-71.3,-66.2,2.5,12.3
2995.7734375,-72.5,-71.7,1.4,14.3
2995.77734375,-73.3,-79.9,-0.6,15.8
2995.78125,-79.1,-89.3,-4.5,19.7
2995.78515625,-83.8,-96.3,-8.8,20.5
2995.7890625,-90.5,-100.6,-9.2,20.5
2995.79296875,-92.8,-96.7,-2.9,14.7
2995.796875,-90.8,-84.6,2.5,9.2
2995.80078125,-88.1,-72.5,8.0,8.8
2995.8046875,-86.5,-60.8,13.1,6.4
2995.80859375,-88.1,-49.0,15.4,6.4
2995.8125,-87.3,-38.9,14.3,6.4
2995.81640625,-77.6,-33.8,15.0,2.9
2995.8203125,-63.5,-27.5,13.9,1.0
2995.82421875,-54.5,-18.9,11.1,2.5
2995.828125,-40.8,-12.3,8.0,2.9
2995.83203125,-23.2,-6.8,6.1,1.8
2995.8359375,-6.4,-1.0,2.1,-0.6
2995.83984375,7.6,3.3,0.2,-2.9
2995.84375,18.6,6.1,-0.6,-6.8
2995.84765625,25.6,4.9,-1.4,-8.4
2995.8515625,27.2,-0.6,-4.5,-6.1
2995.85546875,28.7,-2.9,-5.7,-12.3
2995.859375,34.2,-4.9,-9.6,-22.1
2995.86328125,35.4,-9.6,-18.6,-19.7
2995.8671875,35.8,-11.9,-18.9,-22.5
2995.87109375,36.1,-11.1,-17.0,-23.2
2995.875,29.1,-6.1,-14.3,-18.6
2995.87890625,23.2,1.4,-8.0,-18.2
2995.8828125,26.0,8.8,-2.1,-17.4
2995.88671875,27.2,14.7,1.0,-12.7
2995.890625,24.0,20.9,4.5,-9.6
2995.89453125,24.8,24.8,10.7,-11.1
2995.8984375,31.1,23.2,15.0,-10.4
2995.90234375,37.7,22.9,18.6,-8.0
2995.90625,42.4,24.0,24.4,-8.4
2995.91015625,49.0,27.2,28.7,-8.8
2995.9140625,52.9,30.7,28.3,-2.5
2995.91796875,56.1,35.4,33.0,-6.8
2995.921875,67.4,39.7,34.6,-14.7
2995.92578125,75.2,39.7,31.5,-13.9
2995.9296875,76.8,41.6,30.3,-14.3
2995.93359375,80.3,40.4,31.5,-15.4
2995.9375,79.5,39.7,29.1,-14.3
2995.94140625,71.7,42.8,27.5,-11.5
2995.9453125,69.4,44.7,25.2,-11.1
2995.94921875,70.9,40.4,20.9,-7.6
2995.953125,70.9,33.4,14.7,-1.8
2995.95703125,69.0,31.8,11.9,-2.1
2995.9609375,70.9,30.3,13.5,-3.7
2995.96484375,74.8,27.2,13.1,0.6
2995.96875,75.2,27.9,16.2,7.2
2995.97265625,76.8,31.5,22.5,7.6
2995.9765625,74.4,33.0,26.0,14.7
2995.98046875,73.3,33.0,29.1,17.0
2995.984375,72.1,37.3,36.9,7.2
2995.98828125,74.4,36.1,41.2,6.1
2995.9921875,70.1,36.9,45.9,7.2
2995.99609375,61.1,42.8,51.4,3.7
2996.0,57.2,45.9,55.7,3.3
2996.00390625,53.3,51.0,56.5,2.5
2996.0078125,45.9,59.2,54.9,-1.0
2996.01171875,42.4,64.3,52.2,-4.1
2996.015625,46.3,58.0,46.7,-2.5
2996.01953125,48.3,51.4,40.8,-3.7
2996.0234375,47.1,46.3,37.7,-6.1
2996.02734375,45.5,39.3,33.4,-2.1
2996.03125,41.6,31.5,30.3,5.7
2996.03515625,37.7,26.8,28.3,11.5
2996.0390625,31.1,20.5,27.5,17.0
2996.04296875,33.0,13.9,28.7,16.2
2996.046875,35.4,12.7,29.1,9.6
2996.05078125,37.3,6.8,27.2,9.2
2996.0546875,38.1,1.0,26.4,11.9
2996.05859375,29.9,-0.2,23.2,17.4
2996.0625,21.3,0.2,21.7,24.4
2996.06640625,19.7,1.4,24.8,27.2
2996.0703125,20.9,5.3,28.3,28.7
2996.07421875,16.2,13.1,30.7,30.3
2996.078125,13.9,18.6,38.1,31.1
2996.08203125,13.5,22.9,43.2,31.1
2996.0859375,11.5,29.9,45.1,32.2
2996.08984375,9.2,36.9,46.3,35.4
2996.09375,6.8,42.8,42.8,36.9
2996.09765625,0.2,44.7,36.1,41.2
2996.1015625,-8.0,41.2,34.2,49.0
2996.10546875,-12.7,42.8,36.9,41.2
2996.109375,-17.0,42.0,38.5,34.6
2996.11328125,-20.1,38.9,37.3,37.7
2996.1171875,-26.0,34.6,40.0,33.4
2996.12109375,-33.8,30.3,40.8,32.6
2996.125,-46.3,27.9,40.0,35.0
2996.12890625,-58.0,27.2,40.8,31.1
2996.1328125,-59.6,23.6,42.0,26.4
2996.13671875,-60.4,18.9,39.3,26.0
2996.140625,-66.6,18.2,37.3,26.0
2996.14453125,-65.4,20.9,35.8,19.3
2996.1484375,-58.0,22.1,31.8,16.2
2996.15234375,-48.3,24.0,23.6,13.9
2996.15625,-36.9,26.0,15.4,9.6
2996.16015625,-26.8,26.0,8.0,8.4
2996.1640625,-20.5,21.3,-3.7,16.2
2996.16796875,-17.0,21.7,-7.2,10.7
2996.171875,-10.0,22.5,-4.5,1.4
2996.17578125,-1.0,22.9,-4.1,-2.9
2996.1796875,-0.2,23.6,1.0,-6.8
2996.18359375,-2.1,20.9,9.6,-8.8
2996.1875,-6.1,16.2,15.8,-5.7
2996.19140625,-23.2,15.8,21.7,0.2
2996.1953125,-36.1,15.8,29.9,4.9
2996.19921875,-40.4,11.1,34.6,11.9
2996.203125,-46.7,8.0,40.4,19.7
2996.20703125,-54.1,8.0,46.3,21.3
2996.2109375,-56.8,9.2,50.2,16.6
2996.21484375,-62.3,9.2,51.4,18.9
2996.21875,-66.2,9.6,50.2,22.1
2996.22265625,-67.4,12.7,50.6,19.3
2996.2265625,-73.7,15.0,47.9,26.8
2996.23046875,-67.4,17.0,43.2,26.0
2996.234375,-58.0,22.5,41.2,12.7
2996.23828125,-47.1,24.0,33.0,8.0
2996.2421875,-39.3,25.2,24.4,2.5
2996.24609375,-35.8,29.5,14.3,-3.7
2996.25,-30.7,28.3,8.0,-6.1
2996.25390625,-27.9,27.2,3.3,-8.8
2996.2578125,-29.9,29.9,-0.6,-15.8
2996.26171875,-31.5,27.5,-2.5,-20.9
2996.265625,-34.6,17.4,-4.1,-21.7
2996.26953125,-38.9,9.2,-6.8,-24.8
2996.2734375,-44.0,2.9,-10.0,-26.0
2996.27734375,-50.6,-2.9,-11.5,-22.1
2996.28125,-60.4,-7.6,-12.3,-13.9
2996.28515625,-67.8,-11.1,-11.9,-7.6
2996.2890625,-77.9,-13.1,-8.4,-0.6
2996.29296875,-82.6,-11.5,-8.8,-2.1
2996.296875,-80.3,-7.6,-13.9,-8.4
2996.30078125,-74.8,-2.9,-23.6,-9.6
2996.3046875,-70.9,-0.6,-32.2,-11.9
2996.30859375,-68.2,2.5,-38.9,-11.9
2996.3125,-66.2,6.1,-41.6,-10.4
2996.31640625,-56.1,2.9,-43.6,-13.9
2996.3203125,-50.6,-0.6,-47.9,-17.0
2996.32421875,-50.6,-2.5,-52.9,-17.8
2996.328125,-49.4,-7.2,-59.2,-20.5
2996.33203125,-45.9,-8.8,-60.4,-22.5
2996.3359375,-36.5,-7.6,-54.5,-26.0
2996.33984375,-26.8,-4.5,-45.9,-26.4
2996.34375,-18.9,0.2,-33.8,-24.4
2996.34765625,-14.3,1.8,-22.5,-18.9
2996.3515625,-17.0,-4.9,-14.3,-4.5
2996.35546875,-17.8,-2.5,-10.4,-1.4
2996.359375,-9.2,-6.1,-8.0,-2.9
2996.36328125,-2.1,-13.1,-11.9,2.5
2996.3671875,6.4,-16.2,-10.7,4.1
2996.37109375,17.0,-20.5,-8.0,3.7
2996.375,16.6,-23.6,-4.1,5.7
2996.37890625,13.1,-21.7,-0.2,2.9
2996.3828125,19.7,-22.1,4.1,-4.5
2996.38671875,27.2,-22.1,5.7,-9.2
2996.390625,28.3,-17.0,4.9,-11.5
2996.39453125,34.2,-12.7,6.8,-18.2
2996.3984375,39.3,-13.9,6.4,-22.1
2996.40234375,38.1,-17.4,5.7,-22.5
2996.40625,31.8,-18.9,5.7,-24.0
2996.41015625,24.4,-20.5,3.3,-25.6
2996.4140625,12.3,-24.8,-2.1,-18.2
2996.41796875,1.4,-24.8,-2.5,-23.2
2996.421875,-6.1,-26.0,-4.9,-33.8
2996.42578125,-12.3,-30.7,-8.8,-33.4
2996.4296875,-20.9,-29.1,-11.9,-32.2
2996.43359375,-22.1,-28.7,-12.3,-29.5
2996.4375,-22.1,-28.3,-13.1,-23.6
2996.44140625,-28.7,-23.6,-16.6,-17.8
2996.4453125,-29.1,-22.1,-20.5,-17.4
2996.44921875,-22.1,-29.1,-28.3,-13.1
2996.453125,-18.2,-32.2,-36.9,-10.0
2996.45703125,-12.3,-27.5,-44.0,-10.7
2996.4609375,-0.2,-21.7,-49.4,-11.5
2996.46484375,10.7,-17.4,-55.7,-4.9
2996.46875,20.5,-12.7,-56.8,1.0
2996.47265625,30.7,-10.4,-52.2,1.8
2996.4765625,36.1,-11.1,-44.3,8.4
2996.48046875,41.2,-10.7,-32.6,5.7
2996.484375,51.4,-7.6,-21.3,-3.3
2996.48828125,60.4,-8.4,-15.4,-2.5
2996.4921875,63.5,-8.0,-9.6,-2.9
2996.49609375,63.5,-8.4,-4.5,-3.3
2996.5,62.7,-12.7,-1.0,-1.0
2996.50390625,60.8,-20.5,-0.2,-0.6
2996.5078125,54.1,-22.9,-2.5,-1.8
2996.51171875,46.3,-27.9,-6.4,-2.5
2996.515625,40.4,-38.5,-8.4,-0.2
2996.51953125,34.6,-44.7,-6.1,-2.1
2996.5234375,26.0,-46.7,-4.1,-4.9
2996.52734375,16.6,-47.9,-2.5,-5.7
2996.53125,8.0,-49.0,-2.5,-2.9
2996.53515625,-1.0,-48.6,-3.3,-3.3
2996.5390625,-11.5,-50.2,-3.7,-1.0
2996.54296875,-13.5,-49.4,-2.9,-3.7
2996.546875,-8.4,-45.1,-4.1,-10.7
2996.55078125,-2.9,-42.8,-8.8,-12.7
2996.5546875,4.1,-40.4,-11.1,-15.8
2996.55859375,4.1,-32.6,-9.2,-17.8
2996.5625,-2.1,-23.2,-2.9,-18.9
2996.56640625,0.2,-15.0,8.8,-20.9
2996.5703125,0.2,-1.8,21.3,-22.1
2996.57421875,0.6,14.3,27.5,-22.5
2996.578125,4.5,24.8,28.7,-20.9
2996.58203125,7.6,29.5,29.1,-21.3
2996.5859375,12.7,33.4,25.6,-19.7
2996.58984375,14.7,33.0,18.9,-15.0
2996.59375,15.0,31.1,13.1,-9.2
2996.59765625,22.1,31.1,4.1,-0.6
2996.6015625,25.6,26.0,-4.5,11.9
2996.60546875,28.3,27.9,-6.4,10.0
2996.609375,37.7,31.5,-8.4,2.1
2996.61328125,41.6,33.0,-12.7,0.2
2996.6171875,43.2,34.2,-12.7,-8.8
2996.62109375,46.3,31.5,-12.7,-15.0
2996.625,38.5,31.1,-13.5,-14.3
2996.62890625,27.5,28.3,-11.5,-14.3
2996.6328125,26.0,22.9,-9.6,-13.5
2996.63671875,20.9,16.6,-8.0,-8.8
2996.640625,11.9,13.9,-6.1,-4.5
2996.64453125,6.1,11.9,-4.1,-8.4
2996.6484375,5.3,6.1,-3.3,-9.6
2996.65234375,5.3,0.2,-2.5,-7.6
2996.65625,-1.8,-5.3,-1.8,-8.8
2996.66015625,-6.1,-11.9,-1.4,-7.6
2996.6640625,-12.3,-19.3,-4.5,3.3
2996.66796875,-19.3,-20.1,-2.1,2.5
2996.671875,-14.3,-18.9,-2.1,-1.4
2996.67578125,-6.4,-18.9,-2.9,0.6
2996.6796875,-3.3,-15.4,-1.4,-0.6
2996.68359375,-4.1,-15.8,1.4,-2.5
2996.6875,-4.9,-17.4,5.3,-0.6
2996.69140625,-17.4,-13.5,10.0,2.5
2996.6953125,-31.8,-10.4,15.8,1.0
2996.69921875,-35.8,-10.7,19.7,-0.2
2996.703125,-41.2,-12.7,21.7,0.2
2996.70703125,-51.0,-10.7,22.1,-4.5
2996.7109375,-52.9,-11.1,21.7,-6.4
2996.71484375,-53.7,-14.3,17.0,0.6
2996.71875,-60.8,-16.2,14.7,6.4
2996.72265625,-61.5,-14.3,13.9,6.4
2996.7265625,-61.1,-15.8,10.7,12.7
2996.73046875,-61.5,-12.7,9.2,8.8
2996.734375,-50.2,-6.8,4.5,-1.8
2996.73828125,-38.1,-7.6,-0.6,-2.1
2996.7421875,-26.4,-4.9,-6.4,-5.7
2996.74609375,-17.4,-2.1,-9.6,-8.0
2996.75,-3.3,-4.1,-8.0,-8.8
2996.75390625,10.4,-6.1,-5.3,-10.4
2996.7578125,17.4,-1.8,-1.0,-12.7
2996.76171875,27.5,-1.0,1.0,-12.3
2996.765625,44.3,-6.8,2.1,-8.8
2996.76953125,49.8,-11.1,1.0,-6.1
2996.7734375,51.0,-12.3,-1.4,-5.3
2996.77734375,50.6,-18.2,-2.5,0.2
2996.78125,42.0,-21.7,-1.0,9.6
2996.78515625,30.3,-22.9,4.1,17.0
2996.7890625,13.9,-26.4,15.0,26.8
2996.79296875,4.1,-23.6,28.7,26.0
2996.796875,-5.3,-17.4,39.7,19.7
2996.80078125,-11.1,-13.1,48.3,17.8
2996.8046875,-13.5,-10.4,56.5,15.8
2996.80859375,-25.2,-8.0,63.5,17.8
2996.8125,-36.1,-6.8,69.0,22.5
2996.81640625,-39.7,-9.2,71.3,24.4
2996.8203125,-39.3,-15.4,68.2,23.2
2996.82421875,-44.3,-17.8,58.8,23.6
2996.828125,-44.7,-17.0,49.0,17.8
2996.83203125,-39.3,-20.9,44.0,10.0
2996.8359375,-31.5,-16.6,40.8,-0.2
2996.83984375,-23.6,-7.6,38.9,-9.2
2996.84375,-16.2,-3.7,38.1,-13.1
2996.84765625,-9.6,-1.0,34.6,-12.7
2996.8515625,-8.0,-3.3,26.4,-5.7
2996.85546875,-6.8,-5.3,23.2,-10.0
2996.859375,0.2,-8.8,15.4,-14.7
2996.86328125,6.4,-15.4,6.8,-11.5
2996.8671875,8.8,-22.9,2.9,-11.5
2996.87109375,12.3,-31.5,-1.8,-8.0
2996.875,7.2,-37.7,-6.1,-4.5
2996.87890625,-2.5,-40.0,-8.4,-5.7
2996.8828125,-5.3,-46.3,-9.6,-8.8
2996.88671875,-11.9,-50.6,-10.4,-10.4
2996.890625,-29.9,-50.2,-12.3,-9.6
2996.89453125,-45.5,-49.4,-14.7,-11.1
2996.8984375,-58.0,-51.8,-18.2,-12.3
2996.90234375,-73.3,-54.5,-24.0,-12.3
2996.90625,-84.6,-56.5,-23.6,-18.2
2996.91015625,-93.6,-56.8,-20.5,-22.9
2996.9140625,-101.8,-56.5,-20.5,-18.2
2996.91796875,-106.9,-51.4,-18.2,-20.5
2996.921875,-101.0,-45.9,-16.2,-26.0
2996.92578125,-90.8,-44.0,-23.6,-19.7
2996.9296875,-77.6,-42.0,-26.0,-17.8
2996.93359375,-55.7,-43.2,-24.4,-17.8
2996.9375,-35.8,-43.6,-26.0,-14.3
2996.94140625,-25.6,-38.5,-23.6,-13.5
2996.9453125,-15.4,-32.2,-21.7,-15.4
2996.94921875,-2.1,-29.9,-21.3,-11.5
2996.953125,4.9,-27.9,-17.0,-6.1
2996.95703125,10.0,-21.7,-9.6,-3.3
2996.9609375,15.0,-18.9,-2.5,0.2
2996.96484375,15.0,-18.2,2.9,8.0
2996.96875,6.4,-15.8,8.8,16.2
2996.97265625,2.5,-13.5,15.0,19.7
2996.9765625,-9.6,-10.7,20.5,27.5
2996.98046875,-18.9,-6.8,28.7,26.4
2996.984375,-20.1,-1.8,34.6,19.3
2996.98828125,-20.5,0.6,37.7,18.9
2996.9921875,-20.9,5.3,41.2,16.2
2996.99609375,-21.7,10.7,44.3,14.7
2997.0,-21.3,12.3,49.4,17.0
2997.00390625,-22.5,13.5,53.7,18.2
2997.0078125,-28.3,17.8,54.9,20.9
2997.01171875,-26.0,19.7,55.7,24.4
2997.015625,-20.9,17.4,55.3,26.0
2997.01953125,-14.3,17.0,53.3,24.8
2997.0234375,-6.4,21.3,52.2,20.5
2997.02734375,-6.1,26.4,47.9,18.6
2997.03125,-2.1,27.2,42.0,21.3
2997.03515625,0.2,28.7,35.0,21.3
2997.0390625,4.1,26.0,24.4,23.2
2997.04296875,12.3,25.2,14.3,17.4
2997.046875,24.4,27.9,3.3,8.0
2997.05078125,35.0,31.1,-7.2,1.8
2997.0546875,42.4,35.8,-12.3,-3.3
2997.05859375,42.4,43.6,-13.9,-7.2
2997.0625,42.4,51.8,-14.7,-11.9
2997.06640625,51.4,54.9,-11.1,-18.6
2997.0703125,62.3,58.8,-10.4,-25.6
2997.07421875,61.9,63.5,-11.5,-27.9
2997.078125,65.1,66.6,-13.1,-28.7
2997.08203125,64.7,65.1,-16.6,-24.8
2997.0859375,61.1,65.1,-20.5,-20.5
2997.08984375,58.0,61.9,-22.1,-14.7
2997.09375,55.3,56.8,-20.1,-8.8
2997.09765625,47.9,51.8,-14.3,-3.3
2997.1015625,38.1,42.4,-3.7,3.7
2997.10546875,28.7,37.3,7.2,0.6
2997.109375,21.3,35.8,15.4,-1.8
2997.11328125,14.7,29.1,15.4,4.9
2997.1171875,9.6,24.0,16.6,9.2
2997.12109375,13.9,17.4,17.4,17.4
2997.125,12.3,12.7,17.4,27.2
2997.12890625,6.4,10.4,21.7,31.5
2997.1328125,13.1,6.1,26.0,35.0
2997.13671875,11.5,2.9,31.8,40.0
2997.140625,8.0,6.1,38.9,43.2
2997.14453125,17.0,8.8,45.9,42.4
2997.1484375,26.0,6.1,49.8,42.4
2997.15234375,33.4,3.3,49.8,42.4
2997.15625,33.8,-0.2,49.4,38.9
2997.16015625,25.2,-5.7,47.1,36.1
2997.1640625,18.6,-11.5,45.9,43.2
2997.16796875,17.0,-8.4,47.5,36.9
2997.171875,24.4,-4.9,47.1,27.5
2997.17578125,26.0,-5.3,42.0,24.4
2997.1796875,17.8,-1.8,36.9,14.7
2997.18359375,6.1,-3.3,31.8,2.5
2997.1875,-4.9,-8.4,25.2,-2.9
2997.19140625,-22.9,-9.2,17.8,-7.6
2997.1953125,-34.6,-10.4,11.5,-13.1
2997.19921875,-44.3,-18.6,2.5,-9.2
2997.203125,-59.6,-26.0,-4.9,-4.5
2997.20703125,-81.1,-25.6,-10.7,-3.7
2997.2109375,-89.3,-26.0,-18.6,-5.3
2997.21484375,-98.7,-26.0,-29.1,-0.6
2997.21875,-106.1,-22.5,-35.8,2.1
2997.22265625,-106.1,-15.8,-39.7,1.8
2997.2265625,-122.1,-10.0,-40.0,7.2
2997.23046875,-132.6,-2.9,-35.8,7.2
2997.234375,-129.9,4.5,-31.1,-1.0
2997.23828125,-130.7,8.0,-29.9,-1.0
2997.2421875,-117.8,12.7,-30.3,-1.0
2997.24609375,-101.4,18.2,-32.2,-1.8
2997.25,-86.9,20.1,-31.1,-2.5
2997.25390625,-72.5,23.6,-27.2,-3.7
2997.2578125,-65.4,32.2,-19.7,-6.8
2997.26171875,-58.8,39.7,-10.4,-6.1
2997.265625,-48.6,43.6,0.2,-3.7
2997.26953125,-32.6,51.0,8.8,-4.5
2997.2734375,-22.1,58.4,15.0,-7.6
2997.27734375,-12.3,64.3,19.3,-11.1
2997.28125,-4.5,67.8,24.0,-9.2
2997.28515625,1.8,70.5,29.9,-7.6
2997.2890625,0.2,70.1,35.4,-2.5
2997.29296875,6.4,73.3,42.0,-1.8
2997.296875,17.4,77.9,44.7,-1.8
2997.30078125,23.6,76.8,47.1,2.1
2997.3046875,31.5,72.5,49.8,9.2
2997.30859375,35.0,66.6,49.8,16.2
2997.3125,31.5,59.2,50.6,19.7
2997.31640625,35.4,45.9,49.8,17.8
2997.3203125,39.7,37.7,46.7,11.9
2997.32421875,43.2,36.1,41.2,9.6
2997.328125,43.2,35.8,34.2,5.7
2997.33203125,48.3,33.8,26.4,3.7
2997.3359375,52.9,34.6,20.1,1.0
2997.33984375,49.4,35.4,17.4,-1.8
2997.34375,50.2,33.8,16.6,-1.8
2997.34765625,44.7,33.8,18.9,0.2
2997.3515625,37.3,35.0,19.7,6.8
2997.35546875,29.9,40.0,21.3,3.3
2997.359375,26.8,45.5,21.3,-5.7
2997.36328125,22.9,46.7,13.5,-7.2
2997.3671875,17.8,45.5,8.8,-14.7
2997.37109375,11.9,38.9,2.1,-19.3
2997.375,-3.7,34.6,-4.5,-21.7
2997.37890625,-19.3,33.4,-10.0,-26.4
2997.3828125,-26.8,31.1,-13.1,-33.4
2997.38671875,-36.1,29.1,-17.0,-38.1
2997.390625,-47.1,29.9,-18.2,-40.4
2997.39453125,-53.7,32.6,-15.0,-44.0
2997.3984375,-58.8,29.1,-15.4,-41.2
2997.40234375,-61.1,25.2,-15.4,-32.2
2997.40625,-65.4,22.9,-10.0,-27.2
2997.41015625,-64.7,18.9,-8.8,-23.2
2997.4140625,-52.2,11.5,-10.0,-12.7
2997.41796875,-32.2,9.6,-7.6,-13.9
2997.421875,1.0,10.0,-11.5,-17.4
2997.42578125,32.2,8.8,-19.3,-8.0
2997.4296875,54.9,11.5,-19.3,-4.1
2997.43359375,74.0,12.7,-19.7,-3.3
2997.4375,88.5,11.5,-19.3,-2.5
2997.44140625,100.2,14.7,-19.3,-6.4
2997.4453125,112.7,20.5,-23.6,-14.7
2997.44921875,123.7,18.6,-27.2,-19.7
2997.453125,125.6,19.3,-27.9,-22.9
2997.45703125,114.7,25.6,-24.8,-29.9
2997.4609375,110.0,30.7,-18.9,-36.1
2997.46484375,103.7,32.6,-15.0,-31.8
2997.46875,95.9,33.0,-10.0,-28.7
2997.47265625,86.5,31.5,-4.1,-27.9
2997.4765625,69.4,25.2,0.2,-20.1
2997.48046875,49.4,20.9,5.3,-17.8
2997.484375,39.7,20.5,11.9,-23.2
2997.48828125,36.1,17.0,14.3,-21.3
2997.4921875,29.1,16.6,16.6,-18.6
2997.49609375,22.9,17.0,17.8,-18.9
2997.5,22.5,13.1,17.4,-15.8
2997.50390625,20.1,11.9,16.2,-12.7
2997.5078125,19.7,15.8,12.7,-11.5
2997.51171875,30.3,17.4,8.0,-10.0
2997.515625,36.5,17.8,3.7,-6.8
2997.51953125,49.0,20.5,1.0,-7.6
2997.5234375,57.6,26.4,-0.2,-11.5
2997.52734375,60.4,31.5,-3.3,-12.3
2997.53125,59.6,33.0,-6.8,-10.7
2997.53515625,58.0,34.2,-9.6,-11.1
2997.5390625,45.5,30.7,-14.3,-6.8
2997.54296875,42.0,29.1,-13.1,-11.1
2997.546875,41.2,28.7,-13.1,-17.4
2997.55078125,35.4,25.2,-14.3,-18.6
2997.5546875,28.7,18.9,-14.7,-19.7
2997.55859375,10.4,13.9,-17.0,-16.6
2997.5625,-12.3,8.4,-22.1,-13.5
2997.56640625,-24.0,-2.5,-26.8,-14.3
2997.5703125,-34.6,-13.1,-31.5,-17.0
2997.57421875,-45.9,-15.8,-36.1,-21.7
2997.578125,-51.8,-19.7,-40.8,-26.4
2997.58203125,-56.5,-25.6,-44.3,-29.9
2997.5859375,-61.1,-27.9,-46.3,-31.1
2997.58984375,-57.6,-29.9,-48.3,-30.7
2997.59375,-63.9,-33.0,-47.9,-27.5
2997.59765625,-68.6,-35.8,-47.5,-20.9
2997.6015625,-68.2,-40.0,-48.3,-11.9
2997.60546875,-69.0,-41.6,-45.9,-12.3
2997.609375,-61.9,-41.6,-44.0,-16.6
2997.61328125,-43.2,-42.4,-46.7,-13.9
2997.6171875,-25.6,-39.3,-45.1,-12.7
2997.62109375,-10.7,-36.1,-43.2,-8.0
2997.625,1.8,-29.9,-43.6,-0.2
2997.62890625,7.2,-20.1,-39.3,5.7
2997.6328125,20.1,-14.3,-35.8,7.6
2997.63671875,37.3,-9.6,-33.4,6.1
2997.640625,47.9,0.2,-29.9,2.9
2997.64453125,52.6,8.4,-22.9,-3.7
2997.6484375,58.0,9.6,-17.8,-6.1
2997.65234375,52.9,7.2,-10.0,-2.9
2997.65625,42.0,3.3,1.8,0.2
2997.66015625,39.7,-1.4,13.1,2.1
2997.6640625,30.7,-8.4,22.9,10.0
2997.66796875,18.6,-7.2,34.2,4.9
2997.671875,14.7,-6.1,44.3,-4.5
2997.67578125,4.9,-6.4,45.9,-2.5
2997.6796875,-6.8,-6.4,48.6,-2.9
2997.68359375,-8.4,-9.2,50.2,-4.9
2997.6875,-6.4,-12.3,47.1,-1.8
2997.69140625,-9.2,-11.1,42.8,-1.8
2997.6953125,-13.1,-8.8,39.7,-6.1
2997.69921875,-14.7,-10.7,35.8,-4.9
2997.703125,-15.0,-13.1,32.2,-2.9
2997.70703125,-22.5,-10.0,29.5,-6.4
2997.7109375,-12.7,-8.4,24.0,-8.0
2997.71484375,-7.2,-8.8,13.9,-1.8
2997.71875,-8.0,-10.4,6.1,2.1
2997.72265625,-14.7,-11.9,-0.2,4.5
2997.7265625,-26.8,-14.3,-6.1,11.9
2997.73046875,-32.2,-14.7,-10.0,11.9
2997.734375,-29.5,-13.9,-10.0,5.3
2997.73828125,-17.4,-14.7,-16.2,9.2
2997.7421875,-17.4,-12.7,-19.3,11.1
2997.74609375,-18.6,-8.8,-19.3,11.5
2997.75,-18.2,-10.7,-17.0,13.5
2997.75390625,-17.8,-11.5,-13.9,11.9
2997.7578125,-20.5,-8.4,-10.0,8.0
2997.76171875,-13.5,-8.4,-9.6,8.4
2997.765625,-7.2,-6.8,-14.7,12.7
2997.76953125,-2.1,-1.8,-13.1,13.5
2997.7734375,6.4,4.1,-8.8,12.7
2997.77734375,14.3,10.7,-1.0,12.7
2997.78125,21.7,14.3,9.2,15.4
2997.78515625,28.7,19.3,21.3,18.9
2997.7890625,31.8,22.5,33.0,24.0
2997.79296875,34.6,24.0,40.0,23.2
2997.796875,38.1,27.2,43.2,15.8
2997.80078125,44.7,23.6,43.2,11.1
2997.8046875,51.4,18.9,40.4,5.7
2997.80859375,51.4,21.7,37.7,1.8
2997.8125,47.9,23.6,35.8,2.1
2997.81640625,51.4,24.0,37.3,0.2
2997.8203125,51.4,26.0,36.5,-1.8
2997.82421875,42.8,28.7,37.3,-1.8
2997.828125,40.0,29.1,36.5,-1.0
2997.83203125,36.1,26.8,35.0,-0.6
2997.8359375,32.2,26.4,31.1,-0.6
2997.83984375,29.1,22.9,24.0,1.4
2997.84375,26.8,19.3,17.8,0.2
2997.84765625,18.6,12.3,12.3,1.4
2997.8515625,10.7,1.0,3.7,9.2
2997.85546875,8.0,-3.7,1.4,4.1
2997.859375,13.1,-5.7,-0.2,-0.2
2997.86328125,24.8,-11.1,-7.2,4.5
2997.8671875,33.0,-10.7,-5.7,5.3
2997.87109375,38.9,-9.6,-2.1,8.8
2997.875,37.3,-1.8,-0.6,15.4
2997.87890625,33.8,4.5,4.5,18.2
2997.8828125,36.1,4.5,11.1,17.8
2997.88671875,40.0,3.7,12.7,22.5
2997.890625,39.7,1.0,13.5,25.6
2997.89453125,38.1,0.2,16.6,25.6
2997.8984375,45.1,-2.1,15.4,27.5
2997.90234375,59.2,-3.7,15.0,32.6
2997.90625,66.6,-6.1,16.6,36.5
2997.91015625,68.6,-5.3,17.8,36.9
2997.9140625,76.0,-4.9,14.3,47.9
2997.91796875,78.7,-1.0,14.3,41.6
2997.921875,87.7,2.5,14.3,29.1
2997.92578125,102.6,4.9,8.8,27.2
2997.9296875,114.3,9.2,5.7,24.4
2997.93359375,120.5,8.0,8.0,21.3
2997.9375,125.2,11.5,10.0,24.8
2997.94140625,122.1,19.3,13.5,26.8
2997.9453125,116.2,23.2,19.7,22.1
2997.94921875,117.0,21.3,24.0,18.2
2997.953125,118.2,20.1,24.0,15.4
2997.95703125,115.5,26.0,24.0,6.1
2997.9609375,119.4,32.6,22.5,-0.2
2997.96484375,114.3,42.4,15.4,4.1
2997.96875,107.3,48.3,14.3,10.4
2997.97265625,104.5,48.3,16.2,17.8
2997.9765625,97.9,45.1,18.2,30.3
2997.98046875,101.8,38.1,19.3,33.8
2997.984375,106.1,31.5,27.2,27.9
2997.98828125,114.7,23.6,25.2,29.9
2997.9921875,113.5,18.2,24.8,29.1
2997.99609375,106.9,15.0,23.2,27.9
2998.0,109.6,9.6,18.6,26.8
2998.00390625,107.3,8.0,13.1,22.1
2998.0078125,101.4,7.6,2.9,15.8
2998.01171875,99.4,9.6,-3.3,12.3
2998.015625,96.7,7.2,-11.9,14.3
2998.01953125,93.6,6.4,-17.4,12.7
2998.0234375,87.3,4.9,-18.6,7.6
2998.02734375,75.6,0.6,-15.8,5.3
2998.03125,62.7,-1.0,-12.3,2.9
2998.03515625,51.0,0.6,-7.2,0.6
2998.0390625,36.5,-1.0,-0.2,6.8
2998.04296875,32.2,3.7,1.4,8.0
2998.046875,35.8,8.4,2.5,8.4
2998.05078125,42.8,1.0,7.6,15.8
2998.0546875,49.4,1.8,9.2,22.5
2998.05859375,54.5,6.1,8.0,28.7
2998.0625,54.5,7.2,7.6,35.8
2998.06640625,61.1,8.4,4.9,38.1
2998.0703125,66.6,11.1,6.4,36.5
2998.07421875,63.1,11.1,9.6,35.8
2998.078125,58.8,11.5,13.5,33.4
2998.08203125,52.9,10.4,17.4,30.3
2998.0859375,51.8,8.8,18.2,27.9
2998.08984375,48.6,6.4,14.3,26.8
2998.09375,44.3,7.6,5.7,26.0
2998.09765625,34.6,8.0,-4.1,29.1
2998.1015625,22.1,0.2,-13.5,38.5
2998.10546875,10.7,8.8,-20.9,32.6
2998.109375,6.4,2.5,-7.6,23.6
2998.11328125,6.4,3.7,-5.7,19.7
2998.1171875,11.9,6.1,2.1,10.7
2998.12109375,17.0,5.3,11.5,6.1
2998.125,9.6,8.8,13.5,5.3
2998.12890625,8.4,14.3,16.2,3.7
2998.1328125,12.3,13.9,19.7,3.3
2998.13671875,17.4,12.3,18.6,5.7
2998.140625,22.9,17.4,12.3,10.4
2998.14453125,27.2,22.9,10.7,8.8
2998.1484375,32.2,22.1,10.4,9.2
2998.15234375,35.4,22.9,9.6,13.5
2998.15625,36.1,26.0,9.2,15.0
2998.16015625,37.7,21.7,11.1,16.6
2998.1640625,36.9,18.2,8.4,28.3
2998.16796875,31.8,26.4,8.8,24.4
2998.171875,30.3,17.0,22.1,17.0
2998.17578125,27.5,15.0,22.9,20.5
2998.1796875,18.9,21.3,26.4,18.6
2998.18359375,16.6,16.2,29.5,18.2
2998.1875,9.6,13.5,27.5,21.3
2998.19140625,-5.7,20.1,24.8,20.9
2998.1953125,-21.3,16.6,22.9,17.0
2998.19921875,-35.8,10.0,18.2,17.4
2998.203125,-49.8,6.4,11.9,14.3
2998.20703125,-67.4,1.8,9.2,4.1
2998.2109375,-77.6,-8.0,6.1,-5.3
2998.21484375,-88.1,-19.7,0.6,-10.0
2998.21875,-98.7,-27.5,-3.3,-15.8
2998.22265625,-103.7,-31.1,-6.4,-22.1
2998.2265625,-117.8,-30.7,-11.9,-21.3
2998.23046875,-124.8,-24.0,-15.4,-29.9
2998.234375,-122.1,-25.6,-13.1,-40.0
2998.23828125,-110.0,-33.0,-16.6,-40.8
2998.2421875,-95.1,-37.7,-20.5,-42.4
2998.24609375,-84.6,-37.3,-22.1,-42.4
2998.25,-70.9,-39.3,-22.5,-40.4
2998.25390625,-72.5,-31.1,-20.5,-39.3
2998.2578125,-75.6,-18.9,-17.0,-38.9
2998.26171875,-63.1,-19.3,-13.5,-35.8
2998.265625,-54.9,-21.7,-13.1,-29.9
2998.26953125,-46.7,-19.3,-16.6,-28.3
2998.2734375,-35.8,-17.0,-17.8,-29.9
2998.27734375,-41.2,-12.3,-18.9,-26.8
2998.28125,-47.5,-11.5,-17.4,-19.3
2998.28515625,-49.4,-12.3,-12.3,-13.9
2998.2890625,-54.9,-20.9,-11.9,-1.8
2998.29296875,-59.6,-17.8,-9.2,-1.4
2998.296875,-60.4,-6.4,-10.7,-7.6
2998.30078125,-47.5,1.4,-16.2,-10.4
2998.3046875,-36.1,-2.9,-10.7,-15.4
2998.30859375,-30.3,-4.5,-9.2,-18.9
2998.3125,-24.0,-4.5,-13.1,-18.2
2998.31640625,-18.2,-12.3,-14.7,-16.6
2998.3203125,-14.3,-11.9,-18.9,-16.2
2998.32421875,-14.7,2.1,-29.9,-13.1
2998.328125,-9.2,-6.4,-28.7,-11.1
2998.33203125,-5.3,-13.5,-26.8,-11.9
2998.3359375,-5.7,-8.8,-27.9,-12.3
2998.33984375,0.2,-13.5,-26.8,-10.7
2998.34375,-2.9,-13.9,-22.9,-7.6
2998.34765625,-7.6,-13.9,-18.2,-2.1
2998.3515625,-8.8,-23.6,-14.3,6.1
2998.35546875,-12.7,-29.1,-10.0,2.5
2998.359375,-9.6,-31.5,-7.6,-3.3
2998.36328125,-13.9,-36.9,-9.6,-0.6
2998.3671875,-24.0,-30.3,-10.4,-4.5
2998.37109375,-36.5,-43.2,1.4,-3.7
2998.375,-48.6,-32.6,0.2,0.2
2998.37890625,-54.9,-29.5,2.5,0.2
2998.3828125,-52.6,-33.4,8.0,-2.1
2998.38671875,-56.8,-15.4,2.5,-2.5
2998.390625,-65.8,-16.2,9.2,-2.5
2998.39453125,-71.7,-11.1,13.1,-8.0
2998.3984375,-78.3,-1.8,13.5,-9.6
2998.40234375,-67.0,-16.6,15.4,-6.8
2998.40625,-61.1,-16.2,9.2,-7.2
2998.41015625,-59.2,-8.8,6.8,-9.2
2998.4140625,-58.8,-0.2,-0.2,-0.2
2998.41796875,-51.4,14.3,-10.4,-4.1
2998.421875,-26.4,-5.3,-1.4,-12.7
2998.42578125,-1.4,-12.7,-10.4,-12.3
2998.4296875,24.8,-28.7,-17.4,-16.2
2998.43359375,35.8,-31.5,-16.2,-18.9
2998.4375,44.3,-22.1,-20.5,-18.9
2998.44140625,29.5,1.0,-24.0,-18.6
2998.4453125,20.5,11.5,-19.7,-19.7
2998.44921875,29.5,2.9,-17.0,-15.4
2998.453125,20.1,3.7,-19.7,-12.3
2998.45703125,22.5,-14.7,-13.1,-11.1
2998.4609375,23.6,-27.2,-13.1,-10.7
2998.46484375,12.7,-32.6,-16.2,-8.4
2998.46875,-5.3,-26.8,-19.3,-6.8
2998.47265625,-12.3,-26.8,-18.9,-8.8
2998.4765625,-26.8,-28.7,-16.2,-4.1
2998.48046875,-39.7,-24.0,-16.2,-6.1
2998.484375,-40.0,-38.9,-7.2,-10.7
2998.48828125,-36.5,-44.3,-10.0,-4.9
2998.4921875,-49.8,-27.2,-15.0,-0.6
2998.49609375,-53.7,-25.2,-12.3,3.3
2998.5,-41.6,-24.8,-10.0,9.6
2998.50390625,-30.7,-24.4,-10.4,11.9
2998.5078125,-27.2,-27.2,-11.9,13.1
2998.51171875,-13.5,-30.7,-13.5,15.0
2998.515625,-11.5,-26.4,-16.6,21.3
2998.51953125,-10.4,-22.9,-17.0,22.1
2998.5234375,-9.6,-12.3,-12.3,17.0
2998.52734375,-4.9,-6.1,-8.4,15.8
2998.53125,-3.7,-3.7,-7.6,15.8
2998.53515625,-2.9,2.5,-5.3,14.3
2998.5390625,-2.9,2.9,-4.5,20.1
2998.54296875,3.3,-5.7,1.4,18.6
2998.546875,4.9,4.9,-1.4,9.6
2998.55078125,9.6,-7.2,2.1,6.1
2998.5546875,9.2,-6.8,-0.2,1.4
2998.55859375,-8.0,8.0,-9.6,-1.4
2998.5625,-29.1,16.6,-13.5,-2.5
2998.56640625,-31.5,6.1,-17.4,-4.5
2998.5703125,-39.7,10.0,-18.9,-11.1
2998.57421875,-38.5,-4.9,-19.3,-15.0
2998.578125,-34.2,-14.7,-20.1,-18.9
2998.58203125,-33.4,-15.8,-18.6,-20.9
2998.5859375,-34.6,-11.5,-22.5,-21.3
2998.58984375,-33.4,-9.2,-22.9,-21.3
2998.59375,-35.0,-11.5,-20.1,-17.4
2998.59765625,-36.1,-14.7,-18.6,-13.1
2998.6015625,-38.9,-15.0,-17.0,-5.7
2998.60546875,-30.7,-25.2,-8.0,-8.0
2998.609375,-27.9,-24.0,-0.2,-12.3
2998.61328125,-22.1,-15.4,0.2,-5.7
2998.6171875,-18.2,-18.9,10.4,-0.2
2998.62109375,-18.9,-22.9,20.5,8.8
2998.625,-17.8,-18.6,27.2,20.9
2998.62890625,-20.5,-9.2,25.2,23.6
2998.6328125,-8.8,-30.3,35.8,23.6
2998.63671875,-8.8,-26.0,35.0,25.2
2998.640625,-20.1,-9.6,32.2,26.4
2998.64453125,-24.8,-4.5,39.7,25.6
2998.6484375,-23.2,1.0,40.4,27.9
2998.65234375,-18.6,10.7,34.2,31.8
2998.65625,-6.4,1.0,29.9,31.1
2998.66015625,-1.8,-1.4,21.7,28.3
2998.6640625,-8.4,5.3,7.2,32.6
2998.66796875,-18.9,20.1,0.2,22.1
2998.671875,-18.6,31.1,-5.3,6.8
2998.67578125,-10.0,34.6,-15.4,2.5
2998.6796875,3.7,25.6,-20.9,-5.3
2998.68359375,17.8,14.7,-22.1,-13.5
2998.6875,11.5,13.1,-28.3,-14.3
2998.69140625,-4.5,18.6,-26.0,-19.3
2998.6953125,-6.1,19.3,-25.6,-22.9
2998.69921875,-9.6,17.8,-26.0,-23.2
2998.703125,-1.8,1.8,-21.3,-22.5
2998.70703125,6.4,-4.5,-19.3,-26.8
2998.7109375,3.7,-1.0,-22.5,-32.6
2998.71484375,-15.0,8.4,-26.0,-33.4
2998.71875,-11.1,1.0,-27.5,-33.4
2998.72265625,-16.6,11.5,-33.8,-36.5
2998.7265625,-22.9,-2.1,-24.0,-29.9
2998.73046875,-13.9,-2.1,-24.0,-33.4
2998.734375,-1.4,-8.0,-17.8,-38.9
2998.73828125,2.5,-13.5,-18.9,-33.4
2998.7421875,13.1,-17.4,-18.2,-31.8
2998.74609375,21.7,-22.5,-18.6,-26.4
2998.75,22.5,-18.9,-17.0,-18.6
2998.75390625,26.4,-17.0,-13.9,-15.0
2998.7578125,23.2,-9.2,-10.0,-12.3
2998.76171875,22.1,-1.4,-5.7,-5.3
2998.765625,18.9,0.6,-0.6,0.2
2998.76953125,24.0,2.9,2.1,4.5
2998.7734375,35.0,6.4,-0.2,2.5
2998.77734375,36.1,8.0,-3.7,4.1
2998.78125,24.8,13.9,-6.4,6.4
2998.78515625,31.1,6.1,-3.7,8.8
2998.7890625,20.9,11.5,-1.8,13.1
2998.79296875,19.7,15.4,5.3,10.4
2998.796875,29.9,19.7,8.8,3.7
2998.80078125,33.8,29.5,6.1,1.4
2998.8046875,40.4,13.1,20.1,2.1
2998.80859375,37.3,11.9,26.4,2.9
2998.8125,29.5,18.2,33.0,4.1
2998.81640625,27.2,20.1,38.5,5.3
2998.8203125,29.5,24.0,38.1,2.1
2998.82421875,29.5,23.6,36.5,0.2
2998.828125,33.0,8.0,38.5,-0.6
2998.83203125,35.4,-4.1,34.6,-1.4
2998.8359375,13.1,-5.3,39.3,-1.4
2998.83984375,-8.0,2.9,36.1,-1.4
2998.84375,-26.4,15.8,28.7,-1.0
2998.84765625,-28.7,6.8,27.2,1.4
2998.8515625,-31.5,-1.0,20.1,5.7
2998.85546875,-29.9,-4.1,15.8,0.2
2998.859375,-29.1,-6.4,11.1,-4.9
2998.86328125,-26.0,-12.7,3.3,-5.7
2998.8671875,-17.8,-15.8,-2.9,-10.7
2998.87109375,-4.5,-26.8,-8.8,-11.5
2998.875,-17.4,-22.5,-10.4,-8.0
2998.87890625,-27.5,-12.7,-12.3,-9.6
2998.8828125,-28.7,-12.7,-14.7,-10.4
2998.88671875,-45.9,-0.2,-19.7,-8.4
2998.890625,-38.9,-5.7,-18.9,-8.4
2998.89453125,-18.6,-17.0,-20.9,-10.0
2998.8984375,-35.8,-0.2,-18.9,-9.2
2998.90234375,-28.7,-6.1,-14.3,-4.9
2998.90625,-18.6,-4.1,-16.2,-3.7
2998.91015625,-33.8,-1.8,-16.2,-3.3
2998.9140625,-32.2,-6.4,-16.2,4.1
2998.91796875,-28.3,-4.5,-11.5,-2.5
2998.921875,-17.8,-9.2,-4.5,-11.9
2998.92578125,-7.6,-8.4,-2.1,-11.5
2998.9296875,1.8,-5.7,-0.6,-10.7
2998.93359375,25.6,-20.1,1.0,-11.5
2998.9375,17.8,-8.8,2.1,-8.0
2998.94140625,6.8,11.9,-1.0,-10.4
2998.9453125,17.0,12.3,-4.9,-17.4
2998.94921875,20.5,12.7,-12.3,-19.3
2998.953125,23.6,17.8,-25.2,-22.1
2998.95703125,33.4,-1.4,-24.0,-28.7
2998.9609375,30.7,-2.9,-22.1,-33.0
2998.96484375,26.0,4.9,-26.8,-29.9
2998.96875,24.4,4.5,-28.7,-28.7
2998.97265625,20.9,9.2,-33.4,-27.2
2998.9765625,5.3,19.3,-38.5,-16.2
2998.98046875,1.8,7.2,-35.0,-14.7
2998.984375,10.7,-4.1,-31.8,-15.8
2998.98828125,13.9,-6.4,-35.4,-8.0
2998.9921875,6.4,-2.5,-36.5,-5.3
2998.99609375,13.9,-10.7,-39.7,-1.8
2999.0,-11.1,14.7,-40.0,4.5
2999.00390625,-18.2,5.3,-24.0,10.4
2999.0078125,-4.9,-19.7,-18.9,15.0
2999.01171875,-10.4,-22.9,-18.2,18.9
2999.015625,-15.8,-28.3,-16.2,23.2
2999.01953125,-17.4,-31.5,-20.5,20.5
2999.0234375,-20.5,-17.4,-21.7,13.1
2999.02734375,-13.5,-15.4,-14.7,8.8
2999.03125,3.7,-17.0,-14.7,9.2
2999.03515625,15.0,-27.5,-5.7,8.0
2999.0390625,7.2,-25.6,-4.5,11.5
2999.04296875,6.1,-20.5,-4.9,7.2
2999.046875,11.1,-22.1,-6.8,-0.6
2999.05078125,22.1,-25.6,-11.9,-4.1
2999.0546875,25.6,-14.3,-13.1,-5.3
2999.05859375,26.4,-10.7,-10.4,-3.7
2999.0625,-15.0,10.4,-3.7,-0.6
2999.06640625,-34.2,31.8,3.7,-0.6
2999.0703125,-29.1,29.9,12.3,-3.3
2999.07421875,-29.5,26.4,18.6,-4.9
2999.078125,-11.1,25.6,24.8,-5.3
2999.08203125,9.2,21.3,27.5,-4.1
2999.0859375,11.1,27.9,29.1,-2.1
2999.08984375,13.5,44.7,25.6,0.6
2999.09375,22.5,53.3,21.7,4.9
2999.09765625,36.1,44.0,15.8,10.7
2999.1015625,47.9,38.1,9.2,20.5
2999.10546875,57.6,29.9,12.7,17.8
2999.109375,68.2,31.5,9.6,14.3
2999.11328125,61.9,44.0,7.6,15.4
2999.1171875,65.8,46.3,10.4,10.4
2999.12109375,82.6,40.4,8.4,7.2
2999.125,79.9,40.4,6.8,6.4
2999.12890625,82.2,33.4,4.5,2.5
2999.1328125,100.2,15.8,2.1,0.2
2999.13671875,67.8,43.2,-0.2,2.1
2999.140625,53.7,53.3,0.2,2.1
2999.14453125,51.8,59.2,4.5,-0.2
2999.1484375,48.6,69.7,8.0,1.4
2999.15234375,56.5,65.1,7.2,6.8
2999.15625,66.6,56.5,10.0,10.0
2999.16015625,69.7,58.4,6.8,12.3
2999.1640625,69.7,64.7,-6.1,20.9
2999.16796875,79.1,63.5,-10.4,15.4
2999.171875,88.5,69.4,-15.0,4.5
2999.17578125,97.9,78.3,-29.9,4.1
2999.1796875,103.3,53.7,-22.1,1.0
2999.18359375,101.4,54.9,-21.7,-2.1
2999.1875,115.5,43.2,-22.5,-1.4
2999.19140625,116.2,29.9,-19.7,-2.9
2999.1953125,130.3,27.9,-23.2,-7.2
2999.19921875,138.5,26.0,-26.4,-8.4
2999.203125,132.3,27.2,-22.9,-8.0
2999.20703125,138.5,20.5,-22.1,-13.5
2999.2109375,112.3,47.1,-18.2,-19.3
2999.21484375,101.4,44.0,-8.8,-16.2
2999.21875,97.5,47.5,-10.4,-16.2
2999.22265625,86.9,50.6,-7.2,-17.8
2999.2265625,72.5,49.8,-2.5,-11.5
2999.23046875,70.9,46.3,-0.6,-17.0
2999.234375,71.7,48.6,2.1,-22.5
2999.23828125,70.5,52.9,5.7,-20.9
2999.2421875,71.7,56.5,7.6,-20.5
2999.24609375,78.3,58.8,8.8,-17.8
2999.25,86.5,58.8,15.0,-13.9
2999.25390625,88.9,64.7,19.3,-8.8
2999.2578125,92.4,72.9,26.8,-4.5
2999.26171875,90.5,81.9,33.4,0.6
2999.265625,86.2,90.8,36.9,6.4
2999.26953125,95.9,79.9,41.6,10.4
2999.2734375,99.0,74.4,40.8,7.2
2999.27734375,99.8,70.1,33.0,7.2
2999.28125,108.0,52.9,21.3,11.5
2999.28515625,105.7,38.1,12.7,13.1
2999.2890625,85.4,36.9,4.1,16.6
2999.29296875,97.5,7.2,4.5,14.3
2999.296875,67.8,22.5,6.1,6.1
2999.30078125,53.3,33.8,-1.8,0.2
2999.3046875,58.8,21.7,-9.2,0.2
2999.30859375,43.2,20.9,-20.5,2.1
2999.3125,22.1,27.5,-35.0,5.3
2999.31640625,7.2,0.6,-31.8,8.8
2999.3203125,-6.4,1.4,-42.0,6.4
2999.32421875,-25.6,0.2,-47.9,2.9
2999.328125,-29.5,-8.4,-52.9,0.6
2999.33203125,-26.4,-13.5,-58.8,0.6
2999.3359375,-28.3,-14.3,-61.1,-0.2
2999.33984375,-29.9,-21.7,-60.4,0.6
2999.34375,-34.6,-26.0,-59.2,0.2
2999.34765625,-43.6,-22.1,-60.0,2.1
2999.3515625,-46.3,-27.9,-56.5,10.0
2999.35546875,-42.8,-22.1,-47.5,6.1
2999.359375,-18.2,-24.0,-37.3,4.1
2999.36328125,-4.1,-12.3,-29.9,7.2
2999.3671875,24.8,-13.9,-18.9,5.7
2999.37109375,33.0,-2.9,-8.4,6.8
2999.375,15.8,35.0,-1.4,10.0
2999.37890625,31.1,33.4,12.7,10.0
2999.3828125,49.8,29.1,25.6,6.1
2999.38671875,48.6,41.6,35.4,6.1
2999.390625,46.3,52.6,46.3,2.5
2999.39453125,45.9,58.4,51.8,-4.9
2999.3984375,45.1,67.8,49.8,-8.8
2999.40234375,51.4,64.7,48.6,-9.6
2999.40625,58.4,54.9,47.5,-12.7
2999.41015625,62.3,45.1,45.9,-15.4
2999.4140625,42.8,53.7,45.1,-9.2
2999.41796875,25.6,57.6,49.0,-14.3
2999.421875,26.4,53.3,45.5,-22.5
2999.42578125,26.4,44.3,37.3,-20.9
2999.4296875,23.6,30.7,29.9,-21.7
2999.43359375,29.9,17.4,18.2,-25.2
2999.4375,29.1,1.8,14.3,-22.9
2999.44140625,22.1,-10.7,16.6,-25.6
2999.4453125,13.9,-8.4,18.9,-31.8
2999.44921875,6.8,-8.0,21.3,-34.2
2999.453125,4.9,-13.5,20.5,-36.1
2999.45703125,6.4,-17.0,15.4,-43.2
2999.4609375,13.5,-20.5,8.0,-47.1
2999.46484375,7.2,-37.3,-0.2,-41.6
2999.46875,4.5,-42.8,-5.7,-37.7
2999.47265625,-31.5,-17.8,-8.8,-32.6
2999.4765625,-47.1,-16.6,-11.1,-24.0
2999.48046875,-45.1,-18.6,-13.9,-27.2
2999.484375,-35.4,-21.3,-18.2,-35.8
2999.48828125,-18.9,-36.5,-29.1,-36.9
2999.4921875,-15.8,-49.0,-35.8,-37.7
2999.49609375,-22.9,-52.9,-42.0,-35.8
2999.5,-29.5,-58.4,-42.8,-33.0
2999.50390625,-36.1,-63.5,-38.5,-29.1
2999.5078125,-43.2,-65.1,-31.1,-26.4
2999.51171875,-47.9,-60.0,-22.5,-22.1
2999.515625,-56.8,-52.2,-14.7,-10.7
2999.51953125,-57.6,-48.3,-6.1,-5.7
2999.5234375,-61.5,-29.1,2.1,-8.0
2999.52734375,-71.7,-7.2,8.8,-6.4
2999.53125,-61.5,-14.7,18.6,-0.2
2999.53515625,-57.6,-6.1,26.0,2.1
2999.5390625,-59.6,-2.9,33.4,10.7
2999.54296875,-42.8,-10.0,38.1,10.4
2999.546875,-56.8,15.8,42.8,2.5
2999.55078125,-62.3,31.8,44.7,-2.1
2999.5546875,-59.2,31.1,45.1,-2.9
2999.55859375,-61.1,33.0,42.4,0.2
2999.5625,-57.6,29.9,40.0,2.9
2999.56640625,-43.6,16.2,37.3,6.8
2999.5703125,-44.3,13.1,38.5,5.7
2999.57421875,-55.3,18.9,38.5,4.9
2999.578125,-61.5,18.9,36.5,3.7
2999.58203125,-68.2,18.2,33.4,3.3
2999.5859375,-65.1,16.2,29.9,2.5
2999.58984375,-52.2,6.1,26.4,3.3
2999.59375,-47.9,0.2,25.2,6.4
2999.59765625,-47.5,-2.5,25.6,8.4
2999.6015625,-42.4,-10.4,23.6,16.2
2999.60546875,-57.6,5.7,23.2,11.9
2999.609375,-66.2,16.6,21.3,3.3
2999.61328125,-59.2,15.0,14.3,3.7
2999.6171875,-47.1,6.8,8.8,0.2
2999.62109375,-42.0,-4.1,2.1,-3.3
2999.625,-40.0,-15.8,-2.5,-3.3
2999.62890625,-38.9,-22.1,-8.0,-7.2
2999.6328125,-59.6,-21.7,-10.4,-12.7
2999.63671875,-60.4,-26.8,-15.8,-14.3
2999.640625,-61.1,-27.5,-22.5,-15.0
2999.64453125,-64.7,-26.4,-24.8,-21.3
2999.6484375,-64.7,-26.8,-30.7,-22.5
2999.65234375,-65.8,-27.2,-36.1,-18.6
2999.65625,-70.9,-23.6,-38.5,-17.0
2999.66015625,-78.3,-18.9,-40.0,-13.1
2999.6640625,-80.3,-18.6,-44.3,-3.3
2999.66796875,-77.9,-12.7,-36.5,-10.4
2999.671875,-71.7,-7.6,-29.5,-19.3
2999.67578125,-60.4,-7.6,-30.3,-18.6
2999.6796875,-64.7,1.8,-26.8,-18.9
2999.68359375,-66.6,13.9,-26.4,-17.4
2999.6875,-56.8,9.6,-29.9,-13.9
2999.69140625,-51.4,6.4,-30.3,-13.9
2999.6953125,-37.3,5.7,-30.7,-19.7
2999.69921875,-5.3,-14.7,-32.2,-20.5
2999.703125,2.5,-15.8,-33.8,-19.7
2999.70703125,-12.7,8.8,-30.3,-22.9
2999.7109375,-13.9,14.7,-29.9,-21.3
2999.71484375,-30.3,21.7,-31.1,-11.1
2999.71875,-40.8,24.8,-30.3,-2.5
2999.72265625,-35.4,11.1,-30.7,4.1
2999.7265625,-37.7,0.6,-27.9,15.8
2999.73046875,-36.5,2.1,-22.5,14.7
2999.734375,-27.5,6.8,-13.5,5.3
2999.73828125,-18.6,8.4,-12.7,6.8
2999.7421875,-14.7,15.4,-8.8,6.4
2999.74609375,-10.4,14.7,-4.5,8.4
2999.75,-4.5,14.3,3.7,14.7
2999.75390625,0.6,13.1,17.4,20.9
2999.7578125,-3.3,20.5,29.5,22.5
2999.76171875,-5.3,25.2,33.0,24.4
2999.765625,-1.4,15.4,29.1,29.9
2999.76953125,-0.6,6.1,20.5,29.5
2999.7734375,-1.8,-3.3,9.2,23.6
2999.77734375,-1.0,-13.5,1.0,24.4
2999.78125,-8.0,-19.3,-2.1,26.8
2999.78515625,-14.7,-19.3,-4.1,27.2
2999.7890625,-23.2,-20.5,0.2,33.0
2999.79296875,-28.3,-15.8,4.9,29.9
2999.796875,-28.7,-9.6,8.8,20.9
2999.80078125,-26.0,-11.9,10.4,17.8
2999.8046875,-29.5,-11.1,9.6,16.6
2999.80859375,-38.9,-7.6,5.7,17.0
2999.8125,-53.7,-6.1,4.1,20.1
2999.81640625,-58.4,-12.3,3.3,22.9
2999.8203125,-63.9,-13.9,3.3,21.3
2999.82421875,-72.9,-18.9,2.1,21.3
2999.828125,-70.9,-33.0,1.0,21.7
2999.83203125,-82.6,-28.7,-2.5,20.1
2999.8359375,-94.4,-27.2,-3.7,16.6
2999.83984375,-95.1,-39.7,-8.0,17.0
2999.84375,-111.2,-35.0,-12.3,20.9
2999.84765625,-115.8,-41.6,-17.0,27.2
2999.8515625,-118.6,-55.7,-25.2,39.7
2999.85546875,-115.5,-52.6,-27.9,36.5
2999.859375,-112.7,-47.5,-29.9,26.8
2999.86328125,-106.9,-46.7,-34.2,22.9
2999.8671875,-95.9,-44.0,-35.0,17.0
2999.87109375,-87.3,-40.8,-34.2,15.8
2999.875,-81.9,-36.9,-34.6,20.5
2999.87890625,-69.0,-31.8,-33.8,20.1
2999.8828125,-58.4,-31.8,-31.1,17.4
2999.88671875,-52.6,-34.2,-31.8,17.0
2999.890625,-48.3,-31.8,-33.0,12.3
2999.89453125,-43.2,-28.3,-33.0,4.5
2999.8984375,-31.5,-26.0,-33.4,1.0
2999.90234375,-17.0,-19.3,-32.6,-1.8
2999.90625,-9.2,-10.4,-28.3,-3.7
2999.91015625,-5.7,-7.2,-22.1,-3.3
2999.9140625,1.4,-10.7,-20.1,4.9
2999.91796875,-1.4,-5.3,-13.1,0.2
2999.921875,8.4,-1.0,-6.8,-6.4
2999.92578125,20.5,-5.3,-5.3,-3.3
2999.9296875,0.2,20.5,1.0,-1.4
2999.93359375,2.1,24.4,7.6,-1.0
2999.9375,2.5,21.7,11.1,3.7
2999.94140625,-3.3,25.6,14.7,4.9
2999.9453125,1.4,21.3,16.2,0.6
2999.94921875,8.4,12.3,14.7,2.1
2999.953125,9.2,7.6,11.9,5.3
2999.95703125,5.7,12.3,15.8,3.3
2999.9609375,7.2,14.3,18.2,4.1
2999.96484375,4.5,12.3,20.5,12.3
2999.96875,0.2,13.5,26.8,17.4
2999.97265625,-4.5,11.5,29.5,19.7
2999.9765625,-16.2,6.8,28.7,25.6
2999.98046875,-26.0,6.1,26.4,23.2
2999.984375,-26.8,4.1,26.0,15.8
2999.98828125,-30.3,0.2,22.5,16.6
2999.9921875,-43.2,-0.2,18.2,17.0
2999.99609375,-48.3,-2.5,18.2,14.7
3000.0,-45.5,-13.5,11.1,13.9
3000.00390625,-52.6,-20.1,6.4,10.4
3000.0078125,-56.5,-19.3,4.5,3.7
3000.01171875,-51.8,-24.8,1.4,-1.0
3000.015625,-67.8,-11.5,0.6,-2.5
3000.01953125,-70.1,-9.6,-0.2,-3.7
3000.0234375,-67.8,-7.2,-3.7,-7.2
3000.02734375,-67.4,-6.4,-10.4,-9.6
3000.03125,-68.2,-10.0,-14.3,-8.8
3000.03515625,-70.5,-15.0,-15.0,-6.4
3000.0390625,-73.7,-19.7,-14.3,-4.5
3000.04296875,-81.9,-22.9,-10.0,-1.4
3000.046875,-84.6,-27.5,-9.2,3.7
3000.05078125,-76.4,-29.5,-8.4,-3.3
3000.0546875,-71.7,-34.6,-7.6,-5.3
3000.05859375,-73.3,-31.5,-6.4,-5.3
3000.0625,-71.3,-31.5,-6.1,-5.7
3000.06640625,-67.4,-38.5,-6.8,-4.5
3000.0703125,-64.3,-40.8,-8.8,-1.8
3000.07421875,-59.6,-38.9,-14.3,-6.4
3000.078125,-60.8,-39.3,-18.2,-11.1
3000.08203125,-59.6,-35.4,-21.7,-17.0
3000.0859375,-51.8,-31.1,-25.6,-23.2
3000.08984375,-47.9,-29.5,-26.4,-26.0
3000.09375,-43.2,-28.3,-25.6,-26.4
3000.09765625,-42.0,-27.9,-23.2,-25.2
3000.1015625,-43.6,-29.9,-19.7,-19.3
3000.10546875,-44.3,-29.9,-18.2,-22.9
3000.109375,-41.2,-27.5,-21.3,-32.2
3000.11328125,-30.3,-27.5,-29.5,-31.1
3000.1171875,-20.9,-30.3,-32.6,-35.4
3000.12109375,-14.3,-30.3,-36.5,-36.5
3000.125,-12.7,-26.4,-38.1,-35.0
3000.12890625,-13.5,-21.3,-37.3,-35.8
3000.1328125,-15.8,-21.7,-36.5,-35.4
3000.13671875,-16.6,-20.5,-36.5,-33.0
3000.140625,-19.3,-16.6,-32.2,-33.0
3000.14453125,-23.6,-9.2,-28.7,-36.9
3000.1484375,-25.6,-3.7,-26.0,-37.7
3000.15234375,-24.8,2.9,-26.4,-38.9
3000.15625,-33.4,4.1,-27.5,-39.7
3000.16015625,-40.0,1.8,-32.2,-38.5
3000.1640625,-48.6,-0.6,-39.3,-31.5
3000.16796875,-52.2,2.9,-38.5,-37.3
3000.171875,-46.7,5.7,-42.4,-42.8
3000.17578125,-45.5,9.2,-45.1,-42.0
3000.1796875,-40.8,15.4,-48.3,-45.9
3000.18359375,-31.8,12.3,-50.2,-47.1
3000.1875,-26.4,11.9,-49.4,-48.6
3000.19140625,-29.1,17.0,-46.7,-52.2
3000.1953125,-27.2,18.6,-40.8,-57.2
3000.19921875,-24.0,14.7,-35.4,-54.9
3000.203125,-21.3,11.5,-33.4,-49.8
3000.20703125,-17.8,10.0,-30.3,-49.4
3000.2109375,-8.4,7.2,-27.9,-47.5
3000.21484375,-8.8,4.5,-25.6,-38.5
3000.21875,-10.4,2.9,-20.9,-31.1
3000.22265625,-13.1,-1.8,-12.3,-25.6
3000.2265625,-21.3,-4.9,-6.8,-13.9
3000.23046875,-23.2,-6.4,-1.4,-12.7
3000.234375,-20.9,-6.8,5.3,-19.7
3000.23828125,-12.3,-8.0,7.2,-15.8
3000.2421875,-8.0,-4.9,10.7,-14.7
3000.24609375,-5.3,-0.6,13.1,-11.5
3000.25,2.1,-2.1,17.8,-5.7
3000.25390625,8.0,-0.6,22.5,-0.6
3000.2578125,3.3,1.4,27.5,2.1
3000.26171875,4.9,2.9,30.7,4.1
3000.265625,4.5,0.2,31.1,9.2
3000.26953125,4.9,-2.1,29.9,7.6
3000.2734375,2.9,-1.0,26.4,2.5
3000.27734375,3.3,1.0,23.6,2.9
3000.28125,0.6,4.1,21.7,3.7
3000.28515625,0.2,8.4,23.6,3.3
3000.2890625,-0.6,10.7,25.2,7.6
3000.29296875,-1.4,12.3,29.1,2.9
3000.296875,1.4,17.4,29.1,-4.5
3000.30078125,3.7,18.2,28.3,-9.2
3000.3046875,6.8,20.5,27.2,-15.0
3000.30859375,6.8,27.5,24.4,-19.7
3000.3125,6.4,34.2,20.9,-21.3
3000.31640625,14.3,34.2,18.9,-22.9
3000.3203125,22.5,35.8,17.0,-24.0
3000.32421875,22.5,37.3,16.2,-21.7
3000.328125,22.1,35.8,15.4,-20.1
3000.33203125,24.8,31.8,15.4,-19.7
3000.3359375,22.1,28.3,15.4,-18.9
3000.33984375,21.7,24.0,15.8,-18.6
3000.34375,22.1,20.9,13.5,-15.8
3000.34765625,15.0,21.3,11.1,-11.5
3000.3515625,6.8,19.3,6.1,-4.5
3000.35546875,2.1,19.7,6.4,-10.7
3000.359375,-3.7,22.9,6.1,-20.1
3000.36328125,-6.4,22.5,2.5,-21.3
3000.3671875,-6.8,19.7,1.8,-27.5
3000.37109375,-2.9,17.4,-4.5,-30.7
3000.375,-1.4,16.6,-12.7,-30.3
3000.37890625,-2.5,14.3,-20.9,-34.2
3000.3828125,2.9,5.3,-29.1,-37.3
3000.38671875,8.8,-4.1,-38.9,-33.0
3000.390625,4.9,-11.5,-45.5,-31.1
3000.39453125,16.6,-15.8,-51.8,-31.5
3000.3984375,27.2,-21.3,-58.0,-25.2
3000.40234375,30.7,-25.2,-60.0,-18.9
3000.40625,31.1,-28.3,-57.6,-12.7
3000.41015625,26.0,-29.9,-51.8,-4.9
3000.4140625,13.9,-33.0,-44.7,8.4
3000.41796875,6.4,-26.8,-30.7,8.0
3000.421875,11.5,-20.1,-22.5,10.7
3000.42578125,8.4,-13.1,-15.0,22.1
3000.4296875,4.9,-1.8,-2.9,28.3
3000.43359375,10.7,5.7,6.8,33.4
3000.4375,17.0,12.7,20.9,39.3
3000.44140625,12.7,26.8,33.0,40.4
3000.4453125,17.0,36.9,40.8,40.8
3000.44921875,24.0,39.7,45.5,48.6
3000.453125,21.7,42.8,48.6,56.5
3000.45703125,27.9,46.7,52.6,57.6
3000.4609375,38.9,51.4,56.5,59.2
3000.46484375,46.7,53.7,59.2,67.8
3000.46875,50.6,57.2,61.5,76.0
3000.47265625,54.9,58.8,65.8,83.8
3000.4765625,53.3,58.8,67.0,97.1
3000.48046875,50.6,60.8,68.2,97.9
3000.484375,54.9,60.4,69.4,90.8
3000.48828125,64.7,57.2,66.6,89.7
3000.4921875,63.9,58.4,67.0,90.1
3000.49609375,61.9,61.1,69.0,89.3
3000.5,65.4,60.0,74.4,91.6
3000.50390625,65.4,59.6,80.7,90.1
3000.5078125,59.6,63.9,83.4,86.5
3000.51171875,58.4,65.1,85.0,82.2
3000.515625,58.8,61.5,81.5,84.6
3000.51953125,55.7,60.4,77.2,84.2
3000.5234375,58.0,56.5,72.9,81.9
3000.52734375,57.2,52.6,67.0,84.2
3000.53125,56.8,51.0,62.3,87.3
3000.53515625,58.4,48.6,56.1,86.5
3000.5390625,57.2,42.4,51.0,92.8
3000.54296875,57.6,42.0,48.3,85.4
3000.546875,63.1,39.3,40.0,76.8
3000.55078125,70.9,33.8,33.0,70.5
3000.5546875,76.8,31.5,27.2,63.1
3000.55859375,75.6,32.6,17.4,58.8
3000.5625,75.6,29.9,8.8,58.8
3000.56640625,77.6,22.1,4.9,60.8
3000.5703125,83.8,13.9,0.6,60.8
3000.57421875,82.6,8.8,-1.4,60.8
3000.578125,78.7,3.3,-1.4,60.4
3000.58203125,75.6,0.6,-0.2,58.0
3000.5859375,66.2,-2.1,-0.6,55.7
3000.58984375,63.1,-6.8,-0.6,58.4
3000.59375,63.9,-10.0,2.1,58.8
3000.59765625,56.1,-10.7,0.2,61.5
3000.6015625,49.8,-13.5,0.2,66.6
3000.60546875,49.0,-9.2,1.4,60.4
3000.609375,45.9,-6.1,0.6,51.4
3000.61328125,49.0,-7.2,-5.3,53.3
3000.6171875,59.2,-10.0,-6.8,49.4
3000.62109375,61.9,-11.1,-5.7,50.2
3000.625,61.9,-8.4,-6.1,51.8
3000.62890625,63.5,-6.1,0.2,47.1
3000.6328125,70.9,-4.5,9.2,42.0
3000.63671875,76.8,-5.7,17.0,34.6
3000.640625,79.9,-4.9,21.3,24.0
3000.64453125,84.2,-3.7,26.8,14.7
3000.6484375,86.2,2.5,27.2,4.9
3000.65234375,88.5,3.3,25.2,4.1
3000.65625,85.8,4.1,28.7,1.4
3000.66015625,80.7,7.6,27.5,-2.9
3000.6640625,68.2,2.9,25.2,0.6
3000.66796875,62.7,4.5,25.6,-9.6
3000.671875,63.1,8.8,21.3,-18.2
3000.67578125,61.5,9.2,15.4,-14.3
3000.6796875,59.2,11.9,13.9,-16.6
3000.68359375,58.0,10.0,10.7,-13.9
3000.6875,50.2,7.6,6.4,-12.3
3000.69140625,35.8,12.3,5.7,-15.8
3000.6953125,23.6,17.4,3.3,-22.5
3000.69921875,13.1,16.6,2.9,-21.7
3000.703125,5.7,20.1,4.5,-29.9
3000.70703125,-4.5,22.5,3.7,-39.7
3000.7109375,-9.2,26.8,0.2,-45.9
3000.71484375,-20.5,29.1,-5.7,-46.7
3000.71875,-31.5,29.5,-8.4,-48.3
3000.72265625,-41.6,32.6,-7.6,-44.7
3000.7265625,-53.7,32.2,-4.5,-35.8
3000.73046875,-61.1,35.4,1.4,-39.7
3000.734375,-60.8,38.9,3.7,-42.4
3000.73828125,-58.4,35.8,0.6,-37.7
3000.7421875,-61.9,37.3,-1.4,-35.4
3000.74609375,-63.9,38.9,-4.9,-31.8
3000.75,-63.9,32.6,-8.8,-20.9
3000.75390625,-63.9,29.5,-6.4,-16.2
3000.7578125,-65.1,28.3,-7.6,-12.3
3000.76171875,-68.6,24.0,-10.7,-6.8
3000.765625,-71.3,13.5,-12.7,1.8
3000.76953125,-67.4,7.6,-15.4,3.3
3000.7734375,-65.8,1.0,-17.8,0.6
3000.77734375,-63.5,-8.0,-18.2,2.9
3000.78125,-63.1,-12.3,-19.3,7.6
3000.78515625,-63.1,-19.7,-18.9,9.6
3000.7890625,-63.5,-24.8,-18.9,17.8
3000.79296875,-61.5,-24.4,-17.4,15.8
3000.796875,-54.1,-25.6,-15.8,7.2
3000.80078125,-43.2,-30.3,-17.0,6.1
3000.8046875,-38.1,-33.8,-15.4,1.8
3000.80859375,-46.7,-36.5,-15.4,6.1
3000.8125,-52.9,-36.9,-13.1,4.1
3000.81640625,-59.6,-40.0,-11.9,-0.2
3000.8203125,-71.7,-46.3,-11.5,-3.7
3000.82421875,-83.0,-47.9,-9.2,-9.2
3000.828125,-95.9,-49.4,-8.8,-13.5
3000.83203125,-107.3,-52.6,-7.2,-13.9
3000.8359375,-112.3,-51.4,-6.4,-15.0
3000.83984375,-117.4,-52.2,-6.8,-18.9
3000.84375,-123.3,-54.1,-7.2,-24.0
3000.84765625,-124.4,-52.9,-10.4,-28.7
3000.8515625,-129.5,-57.6,-11.5,-30.7
3000.85546875,-125.2,-56.8,-8.0,-44.7
3000.859375,-112.3,-54.1,-8.0,-53.7
3000.86328125,-101.4,-53.7,-8.8,-54.5
3000.8671875,-87.3,-54.5,-4.9,-55.3
3000.87109375,-76.0,-54.1,-0.2,-51.4
3000.875,-76.4,-50.6,1.4,-44.0
3000.87890625,-75.6,-47.1,7.6,-36.1
3000.8828125,-64.7,-45.5,11.9,-33.0
3000.88671875,-52.6,-45.5,10.0,-26.4
3000.890625,-43.2,-46.7,7.2,-17.0
3000.89453125,-32.2,-47.1,6.4,-19.7
3000.8984375,-26.4,-48.3,1.4,-14.3
3000.90234375,-20.1,-49.4,-0.6,-5.7
3000.90625,-18.6,-48.6,-2.1,1.0
3000.91015625,-15.4,-44.7,-2.9,5.3
3000.9140625,-16.2,-42.8,-6.8,18.6
3000.91796875,-16.2,-36.9,-3.7,15.4
3000.921875,-11.1,-29.9,-1.0,6.4
3000.92578125,-8.0,-26.0,-3.7,7.6
3000.9296875,-7.2,-21.3,-5.7,6.1
3000.93359375,-0.6,-19.3,-5.3,2.5
3000.9375,0.6,-17.0,-5.7,1.8
3000.94140625,-3.7,-6.4,-6.4,-5.7
3000.9453125,-6.8,4.5,-1.0,-24.4
3000.94921875,-11.5,6.4,-0.2,-33.4
3000.953125,-18.2,10.7,-0.2,-45.9
3000.95703125,-21.3,17.4,2.9,-63.5
3000.9609375,-24.8,18.6,1.4,-67.0
3000.96484375,-27.9,22.9,1.0,-75.2
3000.96875,-31.8,21.7,-3.3,-77.9
3000.97265625,-34.6,17.4,-8.8,-83.4
3000.9765625,-44.7,10.0,-15.4,-82.2
3000.98046875,-47.5,6.4,-25.2,-91.2
3000.984375,-44.7,2.1,-33.0,-103.0
3000.98828125,-40.0,-6.1,-43.2,-104.1
3000.9921875,-42.4,-8.8,-52.2,-109.2
3000.99609375,-43.6,-13.9,-60.8,-110.8
3001.0,-43.2,-21.7,-65.1,-112.7
3001.00390625,-44.7,-29.1,-70.5,-114.3
3001.0078125,-46.7,-29.1,-74.4,-117.8
3001.01171875,-48.3,-32.6,-80.3,-117.4
3001.015625,-45.5,-40.4,-89.3,-105.7
3001.01953125,-40.4,-42.4,-94.0,-104.9
3001.0234375,-34.6,-43.6,-99.0,-105.7
3001.02734375,-33.8,-50.6,-104.9,-97.9
3001.03125,-31.5,-54.5,-105.3,-91.2
3001.03515625,-25.6,-57.6,-105.7,-86.5
3001.0390625,-26.0,-70.9,-108.4,-61.1
3001.04296875,-11.9,-68.6,-104.1,-61.1
3001.046875,-0.6,-62.7,-99.8,-63.5
3001.05078125,11.5,-62.7,-96.3,-62.3
3001.0546875,22.9,-58.0,-89.3,-59.6
3001.05859375,22.9,-50.6,-81.1,-57.2
3001.0625,17.4,-45.9,-71.7,-44.3
3001.06640625,14.7,-40.0,-57.6,-33.0
3001.0703125,9.6,-31.8,-45.9,-24.4
3001.07421875,5.7,-18.6,-30.3,-20.5
3001.078125,5.3,-6.8,-20.9,-12.7
3001.08203125,6.8,2.9,-15.4,-4.1
3001.0859375,10.0,11.9,-8.4,2.9
3001.08984375,10.4,11.5,-7.2,18.2
3001.09375,10.7,10.4,-4.5,30.7
3001.09765625,8.4,11.9,1.8,37.7
3001.1015625,5.3,5.7,8.4,52.6
3001.10546875,5.3,9.2,15.8,55.3
3001.109375,5.3,16.2,25.6,55.7
3001.11328125,4.5,7.2,20.1,74.4
3001.1171875,10.7,0.2,22.1,74.0
3001.12109375,9.6,-10.4,21.3,81.9
3001.125,-3.3,-21.3,18.9,89.7
3001.12890625,-13.1,-29.9,20.5,92.4
3001.1328125,-19.3,-41.2,22.1,95.9
3001.13671875,-27.9,-53.3,18.6,100.6
3001.140625,-40.0,-65.4,15.4,102.6
3001.14453125,-56.8,-77.9,11.5,105.7
3001.1484375,-69.4,-87.7,5.7,103.0
3001.15234375,-91.2,-103.7,0.2,105.3
3001.15625,-110.0,-118.6,-0.2,107.3
3001.16015625,-129.5,-131.9,-3.7,108.4
3001.1640625,-159.2,-152.2,-8.8,119.0
3001.16796875,-178.8,-162.0,-9.2,110.8
3001.171875,-195.6,-173.3,-16.6,108.8
3001.17578125,-199.1,-181.9,-23.2,94.4
3001.1796875,-206.5,-188.5,-27.9,88.5
3001.18359375,-206.9,-195.2,-28.3,82.2
3001.1875,-208.1,-203.0,-29.9,79.1
3001.19140625,-217.0,-204.9,-31.1,80.3
3001.1953125,-224.5,-204.9,-32.6,75.2
3001.19921875,-224.9,-206.9,-35.0,72.5
3001.203125,-222.1,-209.2,-36.1,77.9
3001.20703125,-216.7,-203.8,-30.3,66.6
3001.2109375,-206.1,-199.1,-27.5,61.9
3001.21484375,-197.1,-199.1,-28.7,69.0
3001.21875,-194.0,-197.5,-30.7,70.9
3001.22265625,-186.6,-195.6,-32.6,66.6
3001.2265625,-187.7,-194.4,-36.1,70.9
3001.23046875,-179.9,-187.4,-37.3,61.1
3001.234375,-164.3,-176.0,-35.8,44.7
3001.23828125,-145.5,-167.4,-34.2,47.1
3001.2421875,-127.6,-149.8,-29.1,44.0
3001.24609375,-111.9,-134.6,-23.6,46.7
3001.25,-87.3,-123.3,-17.4,40.8
3001.25390625,-67.4,-111.2,-17.0,34.2
3001.2578125,-49.4,-94.0,-18.9,17.8
3001.26171875,-38.5,-84.6,-23.6,15.8
3001.265625,-25.6,-76.8,-26.4,11.5
3001.26953125,-17.0,-71.7,-26.4,7.6
3001.2734375,-8.4,-67.0,-22.9,3.3
3001.27734375,-5.3,-65.8,-21.7,-1.0
3001.28125,-6.1,-61.9,-19.3,-8.8
3001.28515625,-6.8,-53.7,-15.4,-18.2
3001.2890625,-15.4,-52.9,-21.3,-12.7
3001.29296875,-15.4,-43.6,-20.9,-27.5
3001.296875,-11.5,-31.8,-24.0,-44.3
3001.30078125,-6.4,-29.1,-33.8,-49.4
3001.3046875,-6.8,-26.4,-37.7,-58.4
3001.30859375,-12.3,-20.1,-43.2,-62.7
3001.3125,-19.3,-19.3,-52.9,-58.4
3001.31640625,-20.9,-21.7,-58.4,-56.5
3001.3203125,-19.7,-18.6,-60.4,-65.8
3001.32421875,-25.6,-16.2,-63.5,-69.0
3001.328125,-31.1,-16.2,-63.1,-68.2
3001.33203125,-38.9,-16.2,-58.8,-70.9
3001.3359375,-41.6,-15.0,-54.9,-71.7
3001.33984375,-43.2,-20.1,-48.6,-69.4
3001.34375,-46.7,-22.9,-44.0,-72.5
3001.34765625,-56.1,-25.6,-40.4,-69.4
3001.3515625,-67.8,-35.8,-37.3,-60.4
3001.35546875,-74.0,-32.2,-32.6,-63.5
3001.359375,-74.0,-21.3,-24.0,-70.1
3001.36328125,-67.8,-14.3,-18.6,-68.2
3001.3671875,-58.8,-8.8,-9.6,-68.6
3001.37109375,-52.9,-2.1,-3.7,-68.6
3001.375,-57.2,2.9,-2.9,-60.4
3001.37890625,-56.1,9.6,-1.4,-65.4
3001.3828125,-49.8,14.3,-2.5,-67.8
3001.38671875,-42.4,17.0,-4.9,-65.4
3001.390625,-35.0,21.7,-4.5,-64.7
3001.39453125,-30.3,25.2,-0.6,-64.3
3001.3984375,-22.5,29.5,0.2,-64.3
3001.40234375,-13.1,30.3,-0.2,-55.7
3001.40625,-5.7,33.4,5.7,-51.8
3001.41015625,2.1,36.9,6.1,-44.3
3001.4140625,2.9,35.8,6.8,-24.4
3001.41796875,5.3,42.4,16.2,-31.5
3001.421875,7.2,42.0,17.4,-30.7
3001.42578125,10.4,38.9,12.7,-25.6
3001.4296875,15.0,41.6,14.3,-27.2
3001.43359375,23.6,36.9,14.3,-22.9
3001.4375,28.7,36.5,15.8,-19.7
3001.44140625,25.6,40.0,19.7,-17.4
3001.4453125,26.0,46.3,24.0,-15.4
3001.44921875,28.3,48.6,28.3,-10.0
3001.453125,29.5,47.5,26.4,-1.8
3001.45703125,33.8,53.3,31.1,-8.8
3001.4609375,41.2,60.8,33.4,-20.1
3001.46484375,42.8,64.3,29.9,-23.6
3001.46875,45.5,71.7,30.7,-29.1
3001.47265625,45.1,73.7,29.5,-26.4
3001.4765625,47.5,74.4,26.4,-23.2
3001.48046875,46.7,74.4,20.1,-20.9
3001.484375,62.3,78.7,19.7,-36.9
3001.48828125,80.7,78.7,12.3,-42.4
3001.4921875,85.8,82.6,8.0,-47.1
3001.49609375,92.0,86.2,7.2,-51.4
3001.5,97.1,84.2,4.1,-46.3
3001.50390625,99.8,86.9,3.3,-49.0
3001.5078125,97.5,92.0,-0.6,-52.2
3001.51171875,101.8,98.3,-4.5,-61.1
3001.515625,101.8,98.7,-5.3,-62.7
3001.51953125,103.0,95.1,-3.3,-63.9
3001.5234375,105.3,93.6,0.6,-66.2
3001.52734375,105.3,88.5,3.7,-60.4
3001.53125,99.4,77.6,4.5,-50.2
3001.53515625,95.9,74.0,9.6,-58.0
3001.5390625,81.9,58.8,10.7,-41.2
3001.54296875,72.5,50.2,17.0,-45.1
3001.546875,69.7,48.6,21.7,-49.0
3001.55078125,74.8,39.7,22.5,-35.8
3001.5546875,83.8,36.1,27.5,-35.4
3001.55859375,85.4,38.9,30.3,-30.3
3001.5625,82.2,38.1,33.8,-17.4
3001.56640625,82.6,35.4,42.0,-17.0
3001.5703125,80.3,39.3,46.7,-17.4
3001.57421875,77.2,40.4,46.7,-16.2
3001.578125,77.9,43.6,48.6,-20.1
3001.58203125,79.5,46.3,42.4,-19.7
3001.5859375,81.1,47.5,31.1,-17.4
3001.58984375,79.5,44.7,21.7,-16.2
3001.59375,82.2,45.1,15.0,-21.7
3001.59765625,76.4,42.8,3.3,-24.8
3001.6015625,72.1,35.8,-1.4,-24.0
3001.60546875,76.4,34.2,-4.5,-37.7
3001.609375,74.8,33.0,-10.4,-45.5
3001.61328125,86.2,28.7,-23.2,-53.7
3001.6171875,97.1,23.6,-33.0,-64.3
3001.62109375,106.1,18.6,-45.9,-70.1
3001.625,113.5,18.2,-57.6,-79.5
3001.62890625,116.6,18.6,-67.0,-85.8
3001.6328125,124.4,16.2,-75.2,-88.5
3001.63671875,134.2,15.0,-80.3,-91.6
3001.640625,138.9,18.2,-86.9,-93.2
3001.64453125,145.5,23.6,-91.2,-99.8
3001.6484375,151.0,26.8,-94.0,-104.1
3001.65234375,157.3,23.6,-100.6,-101.8
3001.65625,153.7,15.4,-105.3,-93.6
3001.66015625,153.4,11.5,-104.1,-93.2
3001.6640625,147.1,3.3,-109.6,-81.5
3001.66796875,141.2,6.4,-108.8,-89.3
3001.671875,144.0,11.5,-106.5,-101.4
3001.67578125,145.9,7.2,-113.1,-97.5
3001.6796875,144.4,8.0,-111.9,-103.7
3001.68359375,151.4,2.5,-107.6,-108.4
3001.6875,152.6,-2.9,-104.5,-99.0
3001.69140625,149.5,0.2,-101.0,-97.9
3001.6953125,149.1,1.4,-97.5,-92.8
3001.69921875,151.8,-1.4,-92.8,-84.2
3001.703125,151.4,-6.1,-94.4,-71.7
3001.70703125,153.4,-2.5,-86.9,-78.7
3001.7109375,148.3,-2.5,-79.9,-77.6
3001.71484375,140.1,1.0,-76.8,-62.3
3001.71875,134.2,7.6,-65.1,-62.7
3001.72265625,121.3,8.8,-50.6,-56.5
3001.7265625,103.0,10.0,-37.3,-44.0
3001.73046875,92.4,17.0,-24.8,-46.3
3001.734375,86.9,24.4,-11.1,-50.2
3001.73828125,85.4,29.5,-4.5,-48.6
3001.7421875,79.1,37.7,-2.9,-34.6
3001.74609375,75.6,42.8,2.5,-34.2
3001.75,71.3,38.1,3.3,-27.5
3001.75390625,61.1,38.5,3.7,-16.6
3001.7578125,54.9,44.7,8.8,-15.4
3001.76171875,48.3,51.4,16.2,-14.3
3001.765625,38.9,53.3,23.2,0.2
3001.76953125,33.8,54.9,29.1,14.3
3001.7734375,30.7,54.5,33.4,16.6
3001.77734375,21.7,46.7,32.2,26.8
3001.78125,21.3,45.9,30.3,29.9
3001.78515625,18.9,40.8,29.5,28.7
3001.7890625,20.1,36.1,29.1,33.8
3001.79296875,24.8,38.5,30.3,29.5
3001.796875,32.6,39.3,26.8,30.3
3001.80078125,48.3,36.9,24.4,29.1
3001.8046875,56.5,36.5,25.6,29.5
3001.80859375,56.8,39.3,28.3,31.1
3001.8125,55.7,40.4,30.3,34.6
3001.81640625,63.1,36.5,32.6,34.2
3001.8203125,68.2,32.6,28.3,36.5
3001.82421875,71.7,33.8,20.9,35.8
3001.828125,78.3,31.1,16.2,34.2
3001.83203125,80.3,32.2,13.1,35.0
3001.8359375,83.4,35.8,12.3,27.2
3001.83984375,91.2,35.4,8.8,25.6
3001.84375,94.0,29.9,6.8,20.5
3001.84765625,91.2,29.9,3.3,15.8
3001.8515625,87.3,19.7,-1.8,22.1
3001.85546875,82.2,14.7,-2.1,20.9
3001.859375,77.9,17.0,-4.1,13.9
3001.86328125,79.9,17.0,-10.0,14.7
3001.8671875,79.9,11.1,-12.7,21.3
3001.87109375,81.5,15.4,-9.6,13.9
3001.875,71.7,20.9,-6.4,19.7
3001.87890625,63.5,20.9,-0.6,26.0
3001.8828125,60.0,24.4,4.9,26.4
3001.88671875,52.6,25.6,10.0,35.4
3001.890625,42.0,26.4,17.4,33.4
3001.89453125,32.2,33.8,25.6,27.2
3001.8984375,16.6,36.9,30.3,32.2
3001.90234375,8.0,40.4,36.5,34.6
3001.90625,-2.5,40.4,42.4,42.0
3001.91015625,-10.7,36.9,45.5,52.2
3001.9140625,-23.2,31.1,47.5,63.5
3001.91796875,-34.2,31.5,53.7,58.8
3001.921875,-36.9,28.7,55.7,48.3
3001.92578125,-48.3,29.5,51.4,58.4
3001.9296875,-50.6,36.9,56.5,44.0
3001.93359375,-52.2,32.6,54.9,47.9
3001.9375,-54.1,34.2,54.1,48.6
3001.94140625,-62.3,38.1,54.1,46.3
3001.9453125,-51.4,38.5,51.0,37.7
3001.94921875,-42.4,35.4,43.6,43.6
3001.953125,-38.9,34.6,40.8,44.7
3001.95703125,-17.0,30.3,35.8,43.2
3001.9609375,-22.5,35.0,34.2,38.9
3001.96484375,-23.2,34.2,29.9,46.3
3001.96875,-15.0,35.8,30.3,40.0
3001.97265625,-8.0,36.1,31.5,35.0
3001.9765625,-16.2,31.1,31.1,51.4
3001.98046875,-17.4,29.1,33.8,45.1
3001.984375,-12.3,29.5,35.0,42.8
3001.98828125,-9.2,27.5,34.2,42.4
3001.9921875,-6.1,36.1,34.6,39.7
3001.99609375,4.1,38.5,33.4,37.3
